[Device_info]
TestModelName=Resistor
NPLC=Medium
Mode=V-Mode
[Graph]
Y_Log=0
Y2_Log=0
[SMU_Channel]
Resistor=SMU1
Resistor_g=GNDU
[SMU_Setup]
Start=0
Stop=10
Step=0.1
Output_V=0
Input_Icom=100m
Output_Icom=100m
HoldTime=2
DelayTime=0
[GraphInfo]
GraphTitle=RES-V
X_Title=Voltage (V)
X_Min=0
X_Max=10
X_Log=0
X_Abs=0
Y_Title=Current (A)
Y_Min=-0.002
Y_Max=0.01
Y_Log=0
Y_Abs=0
TestCount=1
[Legends]
Visible=0
Position=Right
1=1 : Current
[TestInfo]
Test Name,RES-V
Test Date,2021-09-14 14:35:33
Test Time,6.450s
Mode,Sweep Measure
Speed,Medium
Hold Time,2s
Delay Time,0s
Instrument Channel,SMU1,GNDU
Force Channel Name,Voltage,Voltage
Force Mode,Voltage Sweep,Common
Sweep Mode,VAR1,N/A
Sweep Direction,N/A,N/A
Start/Level,0,N/A
Stop/Offset,10,N/A
Step/Ratio,0.1,N/A
Number of Points,101,N/A
Compliance,0.1,N/A
Measure Channel Name,Current,N/A
Measure Mode,Current Measured,N/A
Measure Range,Limited Auto = 1nA,N/A
Frequency,N/A,N/A
AC Level,N/A,N/A
[TestData]
No,Index,GraphX:Voltage(V),GraphY:Current(A)
  1,  1,     0.000,  1.014E-006
  1,  2,     0.100,  9.083E-005
  1,  3,     0.200,  1.821E-004
  1,  4,     0.300,  2.735E-004
  1,  5,     0.400,  3.641E-004
  1,  6,     0.500,  4.554E-004
  1,  7,     0.600,  5.467E-004
  1,  8,     0.700,  6.381E-004
  1,  9,     0.800,  7.293E-004
  1, 10,     0.900,  8.206E-004
  1, 11,     1.000,  9.115E-004
  1, 12,     1.100,  1.003E-003
  1, 13,     1.200,  1.094E-003
  1, 14,     1.300,  1.186E-003
  1, 15,     1.400,  1.277E-003
  1, 16,     1.500,  1.368E-003
  1, 17,     1.600,  1.459E-003
  1, 18,     1.700,  1.550E-003
  1, 19,     1.800,  1.642E-003
  1, 20,     1.900,  1.733E-003
  1, 21,     2.000,  1.824E-003
  1, 22,     2.100,  1.915E-003
  1, 23,     2.200,  2.006E-003
  1, 24,     2.300,  2.098E-003
  1, 25,     2.400,  2.189E-003
  1, 26,     2.500,  2.280E-003
  1, 27,     2.600,  2.371E-003
  1, 28,     2.700,  2.462E-003
  1, 29,     2.800,  2.554E-003
  1, 30,     2.900,  2.645E-003
  1, 31,     3.000,  2.736E-003
  1, 32,     3.100,  2.827E-003
  1, 33,     3.200,  2.919E-003
  1, 34,     3.300,  3.010E-003
  1, 35,     3.400,  3.101E-003
  1, 36,     3.500,  3.193E-003
  1, 37,     3.600,  3.283E-003
  1, 38,     3.700,  3.375E-003
  1, 39,     3.800,  3.466E-003
  1, 40,     3.900,  3.557E-003
  1, 41,     4.000,  3.649E-003
  1, 42,     4.100,  3.740E-003
  1, 43,     4.200,  3.831E-003
  1, 44,     4.300,  3.922E-003
  1, 45,     4.400,  4.013E-003
  1, 46,     4.500,  4.105E-003
  1, 47,     4.600,  4.196E-003
  1, 48,     4.700,  4.287E-003
  1, 49,     4.800,  4.378E-003
  1, 50,     4.900,  4.470E-003
  1, 51,     5.000,  4.561E-003
  1, 52,     5.100,  4.652E-003
  1, 53,     5.200,  4.743E-003
  1, 54,     5.300,  4.834E-003
  1, 55,     5.400,  4.926E-003
  1, 56,     5.500,  5.017E-003
  1, 57,     5.600,  5.108E-003
  1, 58,     5.700,  5.200E-003
  1, 59,     5.800,  5.290E-003
  1, 60,     5.900,  5.382E-003
  1, 61,     6.000,  5.473E-003
  1, 62,     6.100,  5.564E-003
  1, 63,     6.200,  5.656E-003
  1, 64,     6.300,  5.747E-003
  1, 65,     6.400,  5.838E-003
  1, 66,     6.500,  5.929E-003
  1, 67,     6.600,  6.021E-003
  1, 68,     6.700,  6.112E-003
  1, 69,     6.800,  6.203E-003
  1, 70,     6.900,  6.294E-003
  1, 71,     7.000,  6.385E-003
  1, 72,     7.100,  6.477E-003
  1, 73,     7.200,  6.568E-003
  1, 74,     7.300,  6.659E-003
  1, 75,     7.400,  6.750E-003
  1, 76,     7.500,  6.841E-003
  1, 77,     7.600,  6.933E-003
  1, 78,     7.700,  7.024E-003
  1, 79,     7.800,  7.116E-003
  1, 80,     7.900,  7.206E-003
  1, 81,     8.000,  7.298E-003
  1, 82,     8.100,  7.389E-003
  1, 83,     8.200,  7.480E-003
  1, 84,     8.300,  7.572E-003
  1, 85,     8.400,  7.662E-003
  1, 86,     8.500,  7.754E-003
  1, 87,     8.600,  7.845E-003
  1, 88,     8.700,  7.936E-003
  1, 89,     8.800,  8.028E-003
  1, 90,     8.900,  8.119E-003
  1, 91,     9.000,  8.210E-003
  1, 92,     9.100,  8.301E-003
  1, 93,     9.200,  8.393E-003
  1, 94,     9.300,  8.484E-003
  1, 95,     9.400,  8.575E-003
  1, 96,     9.500,  8.666E-003
  1, 97,     9.600,  8.784E-003
  1, 98,     9.700,  8.874E-003
  1, 99,     9.800,  8.967E-003
  1,100,     9.900,  9.058E-003
  1,101,    10.000,  9.149E-003
