[Device_info]
TestModelName=Resistor
NPLC=Medium
Mode=V-Mode
[Graph]
Y_Log=0
Y2_Log=0
[SMU_Channel]
Resistor=SMU1
Resistor_g=GNDU
[SMU_Setup]
Start=0
Stop=10
Step=0.1
Output_V=0
Input_Icom=100m
Output_Icom=100m
HoldTime=2
DelayTime=0
[GraphInfo]
GraphTitle=RES-V
X_Title=Voltage (V)
X_Min=0
X_Max=10
X_Log=0
X_Abs=0
Y_Title=Current (A)
Y_Min=-1E-05
Y_Max=5E-05
Y_Log=0
Y_Abs=0
TestCount=1
[Legends]
Visible=0
Position=Right
1=1 : Current
[TestInfo]
Test Name,RES-V
Test Date,2021-09-14 14:05:57
Test Time,9.574s
Mode,Sweep Measure
Speed,Medium
Hold Time,2s
Delay Time,0s
Instrument Channel,SMU1,GNDU
Force Channel Name,Voltage,Voltage
Force Mode,Voltage Sweep,Common
Sweep Mode,VAR1,N/A
Sweep Direction,N/A,N/A
Start/Level,0,N/A
Stop/Offset,10,N/A
Step/Ratio,0.1,N/A
Number of Points,101,N/A
Compliance,0.1,N/A
Measure Channel Name,Current,N/A
Measure Mode,Current Measured,N/A
Measure Range,Limited Auto = 1nA,N/A
Frequency,N/A,N/A
AC Level,N/A,N/A
[TestData]
No,Index,GraphX:Voltage(V),GraphY:Current(A)
  1,  1,     0.000,  2.178E-012
  1,  2,     0.100,  1.060E-011
  1,  3,     0.200,  4.976E-012
  1,  4,     0.300,  1.929E-012
  1,  5,     0.400,  1.051E-009
  1,  6,     0.500,  1.181E-009
  1,  7,     0.600,  8.090E-013
  1,  8,     0.700,  5.560E-012
  1,  9,     0.800,  1.352E-011
  1, 10,     0.900,  8.090E-013
  1, 11,     1.000,  5.724E-012
  1, 12,     1.100,  1.122E-009
  1, 13,     1.200,  3.086E-012
  1, 14,     1.300,  7.994E-012
  1, 15,     1.400,  1.582E-011
  1, 16,     1.500,  2.327E-012
  1, 17,     1.600,  8.743E-012
  1, 18,     1.700,  1.813E-011
  1, 19,     1.800,  1.241E-009
  1, 20,     1.900,  4.605E-012
  1, 21,     2.000,  1.033E-011
  1, 22,     2.100,  1.867E-011
  1, 23,     2.200,  1.273E-009
  1, 24,     2.300,  5.364E-012
  1, 25,     2.400,  1.172E-011
  1, 26,     2.500,  2.036E-011
  1, 27,     2.600,  1.292E-009
  1, 28,     2.700,  1.243E-009
  1, 29,     2.800,  6.123E-012
  1, 30,     2.900,  1.291E-011
  1, 31,     3.000,  1.338E-009
  1, 32,     3.100,  1.303E-009
  1, 33,     3.200,  7.641E-012
  1, 34,     3.300,  1.460E-011
  1, 35,     3.400,  7.641E-012
  1, 36,     3.500,  1.594E-011
  1, 37,     3.600,  2.382E-011
  1, 38,     3.700,  1.300E-009
  1, 39,     3.800,  6.123E-012
  1, 40,     3.900,  1.548E-011
  1, 41,     4.000,  8.401E-012
  1, 42,     4.100,  1.691E-011
  1, 43,     4.200,  2.477E-011
  1, 44,     4.300,  6.882E-012
  1, 45,     4.400,  1.647E-011
  1, 46,     4.500,  2.362E-011
  1, 47,     4.600,  1.312E-009
  1, 48,     4.700,  1.275E-009
  1, 49,     4.800,  8.401E-012
  1, 50,     4.900,  1.738E-011
  1, 51,     5.000,  1.289E-009
  1, 52,     5.100,  1.244E-009
  1, 53,     5.200,  2.282E-011
  1, 54,     5.300,  1.908E-011
  1, 55,     5.400,  1.296E-009
  1, 56,     5.500,  8.280E-011
  1, 57,     5.600,  1.897E-009
  1, 58,     5.700,  1.558E-009
  1, 59,     5.800,  3.788E-007
  1, 60,     5.900,  4.721E-007
  1, 61,     6.000,  9.569E-008
  1, 62,     6.100,  4.149E-007
  1, 63,     6.200,  2.785E-005
  1, 64,     6.300,  2.830E-005
  1, 65,     6.400,  2.875E-005
  1, 66,     6.500,  2.920E-005
  1, 67,     6.600,  2.965E-005
  1, 68,     6.700,  3.010E-005
  1, 69,     6.800,  3.055E-005
  1, 70,     6.900,  3.099E-005
  1, 71,     7.000,  3.144E-005
  1, 72,     7.100,  3.190E-005
  1, 73,     7.200,  3.235E-005
  1, 74,     7.300,  3.280E-005
  1, 75,     7.400,  3.324E-005
  1, 76,     7.500,  3.369E-005
  1, 77,     7.600,  3.414E-005
  1, 78,     7.700,  3.459E-005
  1, 79,     7.800,  3.504E-005
  1, 80,     7.900,  3.549E-005
  1, 81,     8.000,  3.593E-005
  1, 82,     8.100,  3.638E-005
  1, 83,     8.200,  3.683E-005
  1, 84,     8.300,  3.728E-005
  1, 85,     8.400,  3.773E-005
  1, 86,     8.500,  3.818E-005
  1, 87,     8.600,  3.863E-005
  1, 88,     8.700,  3.908E-005
  1, 89,     8.800,  3.953E-005
  1, 90,     8.900,  3.998E-005
  1, 91,     9.000,  4.042E-005
  1, 92,     9.100,  4.088E-005
  1, 93,     9.200,  4.132E-005
  1, 94,     9.300,  4.177E-005
  1, 95,     9.400,  4.223E-005
  1, 96,     9.500,  4.267E-005
  1, 97,     9.600,  4.312E-005
  1, 98,     9.700,  4.357E-005
  1, 99,     9.800,  4.402E-005
  1,100,     9.900,  4.447E-005
  1,101,    10.000,  4.491E-005
