[Device_info]
TestModelName=Resistor
NPLC=Medium
Mode=V-Mode
[Graph]
Y_Log=0
Y2_Log=0
[SMU_Channel]
Resistor=SMU1
Resistor_g=GNDU
[SMU_Setup]
Start=0
Stop=10
Step=0.1
Output_V=0
Input_Icom=100m
Output_Icom=100m
HoldTime=2
DelayTime=0
[GraphInfo]
GraphTitle=RES-V
X_Title=Voltage (V)
X_Min=0
X_Max=10
X_Log=0
X_Abs=0
Y_Title=Current (A)
Y_Min=-0.0002
Y_Max=0.0014
Y_Log=0
Y_Abs=0
TestCount=1
[Legends]
Visible=0
Position=Right
1=1 : Current
[TestInfo]
Test Name,RES-V
Test Date,2021-09-14 14:14:34
Test Time,6.453s
Mode,Sweep Measure
Speed,Medium
Hold Time,2s
Delay Time,0s
Instrument Channel,SMU1,GNDU
Force Channel Name,Voltage,Voltage
Force Mode,Voltage Sweep,Common
Sweep Mode,VAR1,N/A
Sweep Direction,N/A,N/A
Start/Level,0,N/A
Stop/Offset,10,N/A
Step/Ratio,0.1,N/A
Number of Points,101,N/A
Compliance,0.1,N/A
Measure Channel Name,Current,N/A
Measure Mode,Current Measured,N/A
Measure Range,Limited Auto = 1nA,N/A
Frequency,N/A,N/A
AC Level,N/A,N/A
[TestData]
No,Index,GraphX:Voltage(V),GraphY:Current(A)
  1,  1,     0.000,  1.007E-006
  1,  2,     0.100,  9.038E-005
  1,  3,     0.200,  1.812E-004
  1,  4,     0.300,  2.721E-004
  1,  5,     0.400,  3.622E-004
  1,  6,     0.500,  4.000E-004
  1,  7,     0.600,  4.120E-004
  1,  8,     0.700,  4.230E-004
  1,  9,     0.800,  4.335E-004
  1, 10,     0.900,  4.438E-004
  1, 11,     1.000,  4.538E-004
  1, 12,     1.100,  4.635E-004
  1, 13,     1.200,  4.730E-004
  1, 14,     1.300,  4.824E-004
  1, 15,     1.400,  4.918E-004
  1, 16,     1.500,  5.010E-004
  1, 17,     1.600,  5.103E-004
  1, 18,     1.700,  5.196E-004
  1, 19,     1.800,  5.289E-004
  1, 20,     1.900,  5.382E-004
  1, 21,     2.000,  5.475E-004
  1, 22,     2.100,  5.568E-004
  1, 23,     2.200,  5.661E-004
  1, 24,     2.300,  5.754E-004
  1, 25,     2.400,  5.847E-004
  1, 26,     2.500,  5.940E-004
  1, 27,     2.600,  6.032E-004
  1, 28,     2.700,  6.125E-004
  1, 29,     2.800,  6.218E-004
  1, 30,     2.900,  6.311E-004
  1, 31,     3.000,  6.404E-004
  1, 32,     3.100,  6.497E-004
  1, 33,     3.200,  6.590E-004
  1, 34,     3.300,  6.682E-004
  1, 35,     3.400,  6.770E-004
  1, 36,     3.500,  6.856E-004
  1, 37,     3.600,  6.939E-004
  1, 38,     3.700,  7.023E-004
  1, 39,     3.800,  7.107E-004
  1, 40,     3.900,  7.190E-004
  1, 41,     4.000,  7.273E-004
  1, 42,     4.100,  7.356E-004
  1, 43,     4.200,  7.439E-004
  1, 44,     4.300,  7.521E-004
  1, 45,     4.400,  7.604E-004
  1, 46,     4.500,  7.687E-004
  1, 47,     4.600,  7.770E-004
  1, 48,     4.700,  7.852E-004
  1, 49,     4.800,  7.935E-004
  1, 50,     4.900,  8.017E-004
  1, 51,     5.000,  8.100E-004
  1, 52,     5.100,  8.183E-004
  1, 53,     5.200,  8.265E-004
  1, 54,     5.300,  8.348E-004
  1, 55,     5.400,  8.431E-004
  1, 56,     5.500,  8.513E-004
  1, 57,     5.600,  8.596E-004
  1, 58,     5.700,  8.679E-004
  1, 59,     5.800,  8.761E-004
  1, 60,     5.900,  8.840E-004
  1, 61,     6.000,  8.923E-004
  1, 62,     6.100,  9.004E-004
  1, 63,     6.200,  9.087E-004
  1, 64,     6.300,  9.170E-004
  1, 65,     6.400,  9.252E-004
  1, 66,     6.500,  9.334E-004
  1, 67,     6.600,  9.417E-004
  1, 68,     6.700,  9.499E-004
  1, 69,     6.800,  9.581E-004
  1, 70,     6.900,  9.665E-004
  1, 71,     7.000,  9.748E-004
  1, 72,     7.100,  9.829E-004
  1, 73,     7.200,  9.912E-004
  1, 74,     7.300,  9.995E-004
  1, 75,     7.400,  1.008E-003
  1, 76,     7.500,  1.016E-003
  1, 77,     7.600,  1.024E-003
  1, 78,     7.700,  1.033E-003
  1, 79,     7.800,  1.041E-003
  1, 80,     7.900,  1.049E-003
  1, 81,     8.000,  1.057E-003
  1, 82,     8.100,  1.066E-003
  1, 83,     8.200,  1.074E-003
  1, 84,     8.300,  1.082E-003
  1, 85,     8.400,  1.090E-003
  1, 86,     8.500,  1.099E-003
  1, 87,     8.600,  1.107E-003
  1, 88,     8.700,  1.115E-003
  1, 89,     8.800,  1.123E-003
  1, 90,     8.900,  1.132E-003
  1, 91,     9.000,  1.140E-003
  1, 92,     9.100,  1.148E-003
  1, 93,     9.200,  1.156E-003
  1, 94,     9.300,  1.165E-003
  1, 95,     9.400,  1.173E-003
  1, 96,     9.500,  1.181E-003
  1, 97,     9.600,  1.189E-003
  1, 98,     9.700,  1.198E-003
  1, 99,     9.800,  1.206E-003
  1,100,     9.900,  1.214E-003
  1,101,    10.000,  1.222E-003
