[Device_info]
TestModelName=Resistor
NPLC=Medium
Mode=V-Mode
[Graph]
Y_Log=0
Y2_Log=0
[SMU_Channel]
Resistor=SMU1
Resistor_g=GNDU
[SMU_Setup]
Start=0
Stop=10
Step=0.1
Output_V=0
Input_Icom=100m
Output_Icom=100m
HoldTime=2
DelayTime=0
[GraphInfo]
GraphTitle=RES-V
X_Title=Voltage (V)
X_Min=0
X_Max=10
X_Log=0
X_Abs=0
Y_Title=Current (A)
Y_Min=-2E-06
Y_Max=1E-05
Y_Log=0
Y_Abs=0
TestCount=1
[Legends]
Visible=0
Position=Right
1=1 : Current
[TestInfo]
Test Name,RES-V
Test Date,2021-09-14 14:08:09
Test Time,6.530s
Mode,Sweep Measure
Speed,Medium
Hold Time,2s
Delay Time,0s
Instrument Channel,SMU1,GNDU
Force Channel Name,Voltage,Voltage
Force Mode,Voltage Sweep,Common
Sweep Mode,VAR1,N/A
Sweep Direction,N/A,N/A
Start/Level,0,N/A
Stop/Offset,10,N/A
Step/Ratio,0.1,N/A
Number of Points,101,N/A
Compliance,0.1,N/A
Measure Channel Name,Current,N/A
Measure Mode,Current Measured,N/A
Measure Range,Limited Auto = 1nA,N/A
Frequency,N/A,N/A
AC Level,N/A,N/A
[TestData]
No,Index,GraphX:Voltage(V),GraphY:Current(A)
  1,  1,     0.000,  1.015E-009
  1,  2,     0.100,  8.937E-008
  1,  3,     0.200,  1.791E-007
  1,  4,     0.300,  2.690E-007
  1,  5,     0.400,  3.581E-007
  1,  6,     0.500,  4.480E-007
  1,  7,     0.600,  5.378E-007
  1,  8,     0.700,  6.276E-007
  1,  9,     0.800,  7.174E-007
  1, 10,     0.900,  8.071E-007
  1, 11,     1.000,  9.004E-007
  1, 12,     1.100,  9.908E-007
  1, 13,     1.200,  1.081E-006
  1, 14,     1.300,  1.171E-006
  1, 15,     1.400,  1.262E-006
  1, 16,     1.500,  1.351E-006
  1, 17,     1.600,  1.441E-006
  1, 18,     1.700,  1.532E-006
  1, 19,     1.800,  1.622E-006
  1, 20,     1.900,  1.712E-006
  1, 21,     2.000,  1.802E-006
  1, 22,     2.100,  1.892E-006
  1, 23,     2.200,  1.982E-006
  1, 24,     2.300,  2.073E-006
  1, 25,     2.400,  2.163E-006
  1, 26,     2.500,  2.253E-006
  1, 27,     2.600,  2.343E-006
  1, 28,     2.700,  2.433E-006
  1, 29,     2.800,  2.523E-006
  1, 30,     2.900,  2.613E-006
  1, 31,     3.000,  2.704E-006
  1, 32,     3.100,  2.793E-006
  1, 33,     3.200,  2.884E-006
  1, 34,     3.300,  2.974E-006
  1, 35,     3.400,  3.064E-006
  1, 36,     3.500,  3.154E-006
  1, 37,     3.600,  3.244E-006
  1, 38,     3.700,  3.334E-006
  1, 39,     3.800,  3.424E-006
  1, 40,     3.900,  3.515E-006
  1, 41,     4.000,  3.605E-006
  1, 42,     4.100,  3.695E-006
  1, 43,     4.200,  3.785E-006
  1, 44,     4.300,  3.875E-006
  1, 45,     4.400,  3.965E-006
  1, 46,     4.500,  4.055E-006
  1, 47,     4.600,  4.146E-006
  1, 48,     4.700,  4.235E-006
  1, 49,     4.800,  4.326E-006
  1, 50,     4.900,  4.416E-006
  1, 51,     5.000,  4.506E-006
  1, 52,     5.100,  4.596E-006
  1, 53,     5.200,  4.686E-006
  1, 54,     5.300,  4.776E-006
  1, 55,     5.400,  4.866E-006
  1, 56,     5.500,  4.957E-006
  1, 57,     5.600,  5.047E-006
  1, 58,     5.700,  5.137E-006
  1, 59,     5.800,  5.227E-006
  1, 60,     5.900,  5.317E-006
  1, 61,     6.000,  5.407E-006
  1, 62,     6.100,  5.498E-006
  1, 63,     6.200,  5.588E-006
  1, 64,     6.300,  5.677E-006
  1, 65,     6.400,  5.768E-006
  1, 66,     6.500,  5.858E-006
  1, 67,     6.600,  5.948E-006
  1, 68,     6.700,  6.038E-006
  1, 69,     6.800,  6.128E-006
  1, 70,     6.900,  6.218E-006
  1, 71,     7.000,  6.309E-006
  1, 72,     7.100,  6.399E-006
  1, 73,     7.200,  6.489E-006
  1, 74,     7.300,  6.579E-006
  1, 75,     7.400,  6.669E-006
  1, 76,     7.500,  6.759E-006
  1, 77,     7.600,  6.849E-006
  1, 78,     7.700,  6.940E-006
  1, 79,     7.800,  7.030E-006
  1, 80,     7.900,  7.119E-006
  1, 81,     8.000,  7.210E-006
  1, 82,     8.100,  7.300E-006
  1, 83,     8.200,  7.390E-006
  1, 84,     8.300,  7.480E-006
  1, 85,     8.400,  7.570E-006
  1, 86,     8.500,  7.660E-006
  1, 87,     8.600,  7.750E-006
  1, 88,     8.700,  7.841E-006
  1, 89,     8.800,  7.931E-006
  1, 90,     8.900,  8.021E-006
  1, 91,     9.000,  8.111E-006
  1, 92,     9.100,  8.201E-006
  1, 93,     9.200,  8.291E-006
  1, 94,     9.300,  8.382E-006
  1, 95,     9.400,  8.472E-006
  1, 96,     9.500,  8.561E-006
  1, 97,     9.600,  8.652E-006
  1, 98,     9.700,  8.742E-006
  1, 99,     9.800,  8.785E-006
  1,100,     9.900,  8.874E-006
  1,101,    10.000,  8.963E-006
