[Device_info]
TestModelName=Resistor
NPLC=Medium
Mode=V-Mode
[Graph]
Y_Log=0
Y2_Log=0
[SMU_Channel]
Resistor=SMU2
Resistor_g=GNDU
[SMU_Setup]
Start=0
Stop=10
Step=0.1
Output_V=0
Input_Icom=100m
Output_Icom=100m
HoldTime=2
DelayTime=0
[GraphInfo]
GraphTitle=RES-V
X_Title=Voltage (V)
X_Min=0
X_Max=10
X_Log=0
X_Abs=0
Y_Title=Current (A)
Y_Min=-5E-12
Y_Max=2.5E-11
Y_Log=0
Y_Abs=0
TestCount=1
[Legends]
Visible=0
Position=Right
1=1 : Current
[TestInfo]
Test Name,RES-V
Test Date,2021-09-14 15:13:59
Test Time,12.593s
Mode,Sweep Measure
Speed,Medium
Hold Time,2s
Delay Time,0s
Instrument Channel,SMU2,GNDU
Force Channel Name,Voltage,Voltage
Force Mode,Voltage Sweep,Common
Sweep Mode,VAR1,N/A
Sweep Direction,N/A,N/A
Start/Level,0,N/A
Stop/Offset,10,N/A
Step/Ratio,0.1,N/A
Number of Points,101,N/A
Compliance,0.1,N/A
Measure Channel Name,Current,N/A
Measure Mode,Current Measured,N/A
Measure Range,Limited Auto = 1nA,N/A
Frequency,N/A,N/A
AC Level,N/A,N/A
[TestData]
No,Index,GraphX:Voltage(V),GraphY:Current(A)
  1,  1,     0.000,  1.365E-012
  1,  2,     0.100,  4.708E-013
  1,  3,     0.200,  2.270E-013
  1,  4,     0.300,  2.522E-013
  1,  5,     0.400,  2.942E-013
  1,  6,     0.500,  5.212E-013
  1,  7,     0.600,  9.164E-013
  1,  8,     0.700,  1.051E-012
  1,  9,     0.800,  1.480E-012
  1, 10,     0.900,  1.555E-012
  1, 11,     1.000,  1.723E-012
  1, 12,     1.100,  1.950E-012
  1, 13,     1.200,  2.127E-012
  1, 14,     1.300,  2.262E-012
  1, 15,     1.400,  2.236E-012
  1, 16,     1.500,  2.589E-012
  1, 17,     1.600,  2.917E-012
  1, 18,     1.700,  3.111E-012
  1, 19,     1.800,  3.228E-012
  1, 20,     1.900,  3.329E-012
  1, 21,     2.000,  3.783E-012
  1, 22,     2.100,  4.052E-012
  1, 23,     2.200,  3.977E-012
  1, 24,     2.300,  3.977E-012
  1, 25,     2.400,  4.153E-012
  1, 26,     2.500,  4.346E-012
  1, 27,     2.600,  4.792E-012
  1, 28,     2.700,  4.817E-012
  1, 29,     2.800,  5.170E-012
  1, 30,     2.900,  5.145E-012
  1, 31,     3.000,  5.397E-012
  1, 32,     3.100,  5.658E-012
  1, 33,     3.200,  5.641E-012
  1, 34,     3.300,  5.961E-012
  1, 35,     3.400,  5.977E-012
  1, 36,     3.500,  6.364E-012
  1, 37,     3.600,  6.423E-012
  1, 38,     3.700,  6.793E-012
  1, 39,     3.800,  6.734E-012
  1, 40,     3.900,  7.112E-012
  1, 41,     4.000,  7.079E-012
  1, 42,     4.100,  7.676E-012
  1, 43,     4.200,  7.861E-012
  1, 44,     4.300,  8.651E-012
  1, 45,     4.400,  9.399E-012
  1, 46,     4.500,  9.038E-012
  1, 47,     4.600,  1.037E-011
  1, 48,     4.700,  1.003E-011
  1, 49,     4.800,  1.015E-011
  1, 50,     4.900,  1.048E-011
  1, 51,     5.000,  1.051E-011
  1, 52,     5.100,  1.114E-011
  1, 53,     5.200,  1.161E-011
  1, 54,     5.300,  1.118E-011
  1, 55,     5.400,  1.156E-011
  1, 56,     5.500,  1.208E-011
  1, 57,     5.600,  1.181E-011
  1, 58,     5.700,  1.257E-011
  1, 59,     5.800,  1.290E-011
  1, 60,     5.900,  1.398E-011
  1, 61,     6.000,  1.356E-011
  1, 62,     6.100,  1.312E-011
  1, 63,     6.200,  1.399E-011
  1, 64,     6.300,  1.533E-011
  1, 65,     6.400,  1.524E-011
  1, 66,     6.500,  1.541E-011
  1, 67,     6.600,  1.554E-011
  1, 68,     6.700,  1.597E-011
  1, 69,     6.800,  1.533E-011
  1, 70,     6.900,  1.601E-011
  1, 71,     7.000,  1.636E-011
  1, 72,     7.100,  1.658E-011
  1, 73,     7.200,  1.645E-011
  1, 74,     7.300,  1.802E-011
  1, 75,     7.400,  1.772E-011
  1, 76,     7.500,  1.692E-011
  1, 77,     7.600,  1.779E-011
  1, 78,     7.700,  1.744E-011
  1, 79,     7.800,  1.779E-011
  1, 80,     7.900,  1.850E-011
  1, 81,     8.000,  1.885E-011
  1, 82,     8.100,  1.829E-011
  1, 83,     8.200,  1.908E-011
  1, 84,     8.300,  1.882E-011
  1, 85,     8.400,  1.984E-011
  1, 86,     8.500,  2.006E-011
  1, 87,     8.600,  2.004E-011
  1, 88,     8.700,  2.008E-011
  1, 89,     8.800,  2.025E-011
  1, 90,     8.900,  2.014E-011
  1, 91,     9.000,  2.062E-011
  1, 92,     9.100,  2.120E-011
  1, 93,     9.200,  2.109E-011
  1, 94,     9.300,  2.164E-011
  1, 95,     9.400,  2.171E-011
  1, 96,     9.500,  2.160E-011
  1, 97,     9.600,  2.143E-011
  1, 98,     9.700,  2.188E-011
  1, 99,     9.800,  2.238E-011
  1,100,     9.900,  2.186E-011
  1,101,    10.000,  2.252E-011
