[Device_info]
TestModelName=Resistor
NPLC=Medium
Mode=V-Mode
[Graph]
Y_Log=0
Y2_Log=0
[SMU_Channel]
Resistor=SMU1
Resistor_g=GNDU
[SMU_Setup]
Start=0
Stop=10
Step=0.1
Output_V=0
Input_Icom=100m
Output_Icom=100m
HoldTime=2
DelayTime=0
[GraphInfo]
GraphTitle=RES-V
X_Title=Voltage (V)
X_Min=0
X_Max=10
X_Log=0
X_Abs=0
Y_Title=Current (A)
Y_Min=-1E-10
Y_Max=5E-10
Y_Log=0
Y_Abs=0
TestCount=1
[Legends]
Visible=0
Position=Right
1=1 : Current
[TestInfo]
Test Name,RES-V
Test Date,2021-09-14 14:02:41
Test Time,6.539s
Mode,Sweep Measure
Speed,Medium
Hold Time,2s
Delay Time,0s
Instrument Channel,SMU1,GNDU
Force Channel Name,Voltage,Voltage
Force Mode,Voltage Sweep,Common
Sweep Mode,VAR1,N/A
Sweep Direction,N/A,N/A
Start/Level,0,N/A
Stop/Offset,10,N/A
Step/Ratio,0.1,N/A
Number of Points,101,N/A
Compliance,0.1,N/A
Measure Channel Name,Current,N/A
Measure Mode,Current Measured,N/A
Measure Range,Limited Auto = 1nA,N/A
Frequency,N/A,N/A
AC Level,N/A,N/A
[TestData]
No,Index,GraphX:Voltage(V),GraphY:Current(A)
  1,  1,     0.000,  7.246E-013
  1,  2,     0.100,  4.301E-012
  1,  3,     0.200,  4.312E-010
  1,  4,     0.300,  4.215E-010
  1,  5,     0.400,  4.430E-010
  1,  6,     0.500,  4.434E-010
  1,  7,     0.600,  4.110E-010
  1,  8,     0.700,  3.989E-010
  1,  9,     0.800,  4.448E-010
  1, 10,     0.900,  4.206E-010
  1, 11,     1.000,  4.316E-010
  1, 12,     1.100,  4.664E-010
  1, 13,     1.200,  4.587E-010
  1, 14,     1.300,  4.617E-010
  1, 15,     1.400,  4.610E-010
  1, 16,     1.500,  3.870E-010
  1, 17,     1.600,  4.674E-010
  1, 18,     1.700,  4.263E-010
  1, 19,     1.800,  4.534E-010
  1, 20,     1.900,  3.863E-010
  1, 21,     2.000,  4.750E-010
  1, 22,     2.100,  4.607E-010
  1, 23,     2.200,  4.636E-010
  1, 24,     2.300,  4.392E-010
  1, 25,     2.400,  4.405E-010
  1, 26,     2.500,  4.884E-010
  1, 27,     2.600,  4.951E-010
  1, 28,     2.700,  4.568E-010
  1, 29,     2.800,  4.671E-010
  1, 30,     2.900,  4.738E-010
  1, 31,     3.000,  4.330E-010
  1, 32,     3.100,  4.629E-010
  1, 33,     3.200,  2.173E-010
  1, 34,     3.300,  4.203E-010
  1, 35,     3.400,  4.556E-010
  1, 36,     3.500,  4.663E-010
  1, 37,     3.600,  4.561E-010
  1, 38,     3.700,  4.671E-010
  1, 39,     3.800,  4.588E-010
  1, 40,     3.900,  4.589E-010
  1, 41,     4.000,  4.698E-010
  1, 42,     4.100,  4.416E-010
  1, 43,     4.200,  4.252E-010
  1, 44,     4.300,  4.572E-010
  1, 45,     4.400,  4.425E-010
  1, 46,     4.500,  4.690E-010
  1, 47,     4.600,  4.307E-010
  1, 48,     4.700,  4.556E-010
  1, 49,     4.800,  4.282E-010
  1, 50,     4.900,  4.593E-010
  1, 51,     5.000,  4.591E-010
  1, 52,     5.100,  4.621E-010
  1, 53,     5.200,  4.181E-010
  1, 54,     5.300,  4.596E-010
  1, 55,     5.400,  4.187E-010
  1, 56,     5.500,  4.571E-010
  1, 57,     5.600,  4.084E-010
  1, 58,     5.700,  4.608E-010
  1, 59,     5.800,  4.551E-010
  1, 60,     5.900,  4.744E-010
  1, 61,     6.000,  4.597E-010
  1, 62,     6.100,  4.731E-010
  1, 63,     6.200,  4.713E-010
  1, 64,     6.300,  4.738E-010
  1, 65,     6.400,  4.592E-010
  1, 66,     6.500,  4.848E-010
  1, 67,     6.600,  4.771E-010
  1, 68,     6.700,  4.328E-010
  1, 69,     6.800,  4.162E-010
  1, 70,     6.900,  4.385E-010
  1, 71,     7.000,  4.621E-010
  1, 72,     7.100,  4.659E-010
  1, 73,     7.200,  4.666E-010
  1, 74,     7.300,  4.638E-010
  1, 75,     7.400,  4.667E-010
  1, 76,     7.500,  4.450E-010
  1, 77,     7.600,  4.624E-010
  1, 78,     7.700,  4.652E-010
  1, 79,     7.800,  4.624E-010
  1, 80,     7.900,  4.415E-010
  1, 81,     8.000,  4.728E-010
  1, 82,     8.100,  4.734E-010
  1, 83,     8.200,  4.835E-010
  1, 84,     8.300,  4.556E-010
  1, 85,     8.400,  4.274E-010
  1, 86,     8.500,  4.843E-010
  1, 87,     8.600,  4.477E-010
  1, 88,     8.700,  4.560E-010
  1, 89,     8.800,  4.386E-010
  1, 90,     8.900,  4.481E-010
  1, 91,     9.000,  4.604E-010
  1, 92,     9.100,  4.629E-010
  1, 93,     9.200,  4.805E-010
  1, 94,     9.300,  4.745E-010
  1, 95,     9.400,  4.259E-010
  1, 96,     9.500,  4.751E-010
  1, 97,     9.600,  4.701E-010
  1, 98,     9.700,  4.581E-010
  1, 99,     9.800,  4.755E-010
  1,100,     9.900,  4.156E-010
  1,101,    10.000,  4.693E-010
