[Device_info]
TestModelName=MOS_Id_Vg
NPLC=Medium
Channel_Type=N_Type
Hysteresis=False
[SMU_Channel]
Drain=SMU1
Gate=SMU2
Source=SMU3
Body1=Disable
Body2=Disable
[SMU_Setup]
GStart=0
GStop=5
GStep=0.01
DStart=50m
DStop=50m
DStep=0
Source_V=0
Body1_V=0
Body2_V=5
DIcom=100m
GIcom=100m
SIcom=100m
B1Icom=1m
B2Icom=1m
HoldTime=10m
DelayTime=10m
[GraphInfo]
GraphTitle=NMOS_Id-Vg_gm.2tsd
X_Title=Vgate (V)
X_Min=0
X_Max=5
X_Log=0
X_Abs=0
Y_Title=Idrain (A)
Y_Min=-5E-05
Y_Max=0.0003
Y_Log=0
Y_Abs=0
Y2_Title=gm
Y2_Min=-2E-05
Y2_Max=0.00012
Y2_Log=0
Y2_Abs=0
TestCount=3
[Legends]
Visible=0
Position=Right
1=1 : Idrain@Vdrain=0.05V
2=2 : gm@Vdrain=0.05V
3=3 : Idrain@Vdrain=0.05V
4=4 : gm@Vdrain=0.05V
5=5 : Idrain@Vdrain=0.05V
6=6 : gm@Vdrain=0.05V
[TestInfo]
Test Name,NMOS_Id-Vg_gm.2tsd
Test Date,2021-05-20 17:06:25
Test Time,1.143s
Mode,Sweep Measure
Speed,Medium
Hold Time,0.01s
Delay Time,0.01s
Instrument Channel,SMU2,SMU1,SMU3
Force Channel Name,Vgate,Vdrain,Vsource
Force Mode,Voltage Sweep,Voltage Sweep,Voltage Bias
Sweep Mode,VAR1,VAR2,Constant
Sweep Direction,N/A,N/A,N/A
Start/Level,0,0.05,0
Stop/Offset,5,0.05,N/A
Step/Ratio,0.5,0,N/A
Number of Points,11,1,N/A
Compliance,0.1,0.1,0.1
Measure Channel Name,N/A,Idrain,N/A
Measure Mode,N/A,Current Measured,N/A
Measure Range,N/A,Limited Auto = 1nA,N/A
Frequency,N/A,N/A,N/A
AC Level,N/A,N/A,N/A
[TestData]
No,Index,Vdrain(V),GraphX:Vgate(V),GraphY:Idrain(A),GraphY2:gm
  1,  1,0.05,     0.000,  4.154E-013, -5.923E-012
  1,  2,0.05,     0.500, -2.546E-012,  2.412E-011
  1,  3,0.05,     1.000,  2.454E-011,  8.076E-008
  1,  4,0.05,     1.500,  8.075E-008,  2.103E-005
  1,  5,0.05,     2.000,  2.103E-005,  7.013E-005
  1,  6,0.05,     2.500,  7.021E-005,  9.630E-005
  1,  7,0.05,     3.000,  1.173E-004,  9.025E-005
  1,  8,0.05,     3.500,  1.605E-004,  8.315E-005
  1,  9,0.05,     4.000,  2.005E-004,  7.760E-005
  1, 10,0.05,     4.500,  2.381E-004,  7.310E-005
  1, 11,0.05,     5.000,  2.736E-004,  7.104E-005
[TestInfo]
Test Name,NMOS_Id-Vg_gm.2tsd
Test Date,2021-05-20 17:06:37
Test Time,4.422s
Mode,Sweep Measure
Speed,Medium
Hold Time,0.01s
Delay Time,0.01s
Instrument Channel,SMU2,SMU1,SMU3
Force Channel Name,Vgate,Vdrain,Vsource
Force Mode,Voltage Sweep,Voltage Sweep,Voltage Bias
Sweep Mode,VAR1,VAR2,Constant
Sweep Direction,N/A,N/A,N/A
Start/Level,0,0.05,0
Stop/Offset,5,0.05,N/A
Step/Ratio,0.05,0,N/A
Number of Points,101,1,N/A
Compliance,0.1,0.1,0.1
Measure Channel Name,N/A,Idrain,N/A
Measure Mode,N/A,Current Measured,N/A
Measure Range,N/A,Limited Auto = 1nA,N/A
Frequency,N/A,N/A,N/A
AC Level,N/A,N/A,N/A
[TestData]
No,Index,Vdrain(V),GraphX:Vgate(V),GraphY:Idrain(A),GraphY2:gm
  2,  1,0.05,     0.000,  3.059E-013, -9.767E-012
  2,  2,0.05,     0.050, -1.824E-013, -6.315E-012
  2,  3,0.05,     0.100, -3.255E-013, -1.936E-012
  2,  4,0.05,     0.150, -3.761E-013, -7.578E-013
  2,  5,0.05,     0.200, -4.013E-013, -9.261E-013
  2,  6,0.05,     0.250, -4.687E-013, -1.684E-013
  2,  7,0.05,     0.300, -4.182E-013,  4.210E-013
  2,  8,0.05,     0.350, -4.266E-013, -1.684E-013
  2,  9,0.05,     0.400, -4.350E-013, -8.419E-014
  2, 10,0.05,     0.450, -4.350E-013, -8.420E-014
  2, 11,0.05,     0.500, -4.434E-013, -2.526E-013
  2, 12,0.05,     0.550, -4.603E-013, -2.526E-013
  2, 13,0.05,     0.600, -4.687E-013,  8.420E-013
  2, 14,0.05,     0.650, -3.761E-013,  2.610E-012
  2, 15,0.05,     0.700, -2.077E-013,  4.883E-012
  2, 16,0.05,     0.750,  1.123E-013,  1.069E-011
  2, 17,0.05,     0.800,  8.616E-013,  2.290E-011
  2, 18,0.05,     0.850,  2.402E-012,  4.681E-011
  2, 19,0.05,     0.900,  5.543E-012,  9.767E-011
  2, 20,0.05,     0.950,  1.217E-011,  2.088E-010
  2, 21,0.05,     1.000,  2.642E-011,  4.489E-010
  2, 22,0.05,     1.050,  5.706E-011,  9.725E-010
  2, 23,0.05,     1.100,  1.237E-010,  2.135E-009
  2, 24,0.05,     1.150,  2.706E-010,  4.710E-009
  2, 25,0.05,     1.200,  5.947E-010,  1.059E-008
  2, 26,0.05,     1.250,  1.329E-009,  2.397E-008
  2, 27,0.05,     1.300,  2.991E-009,  5.410E-008
  2, 28,0.05,     1.350,  6.739E-009,  1.244E-007
  2, 29,0.05,     1.400,  1.543E-008,  2.848E-007
  2, 30,0.05,     1.450,  3.522E-008,  6.539E-007
  2, 31,0.05,     1.500,  8.082E-008,  1.497E-006
  2, 32,0.05,     1.550,  1.849E-007,  3.327E-006
  2, 33,0.05,     1.600,  4.135E-007,  7.073E-006
  2, 34,0.05,     1.650,  8.922E-007,  1.388E-005
  2, 35,0.05,     1.700,  1.802E-006,  2.449E-005
  2, 36,0.05,     1.750,  3.341E-006,  3.843E-005
  2, 37,0.05,     1.800,  5.645E-006,  5.341E-005
  2, 38,0.05,     1.850,  8.683E-006,  6.742E-005
  2, 39,0.05,     1.900,  1.239E-005,  7.865E-005
  2, 40,0.05,     1.950,  1.655E-005,  8.639E-005
  2, 41,0.05,     2.000,  2.103E-005,  9.192E-005
  2, 42,0.05,     2.050,  2.574E-005,  9.564E-005
  2, 43,0.05,     2.100,  3.059E-005,  9.766E-005
  2, 44,0.05,     2.150,  3.551E-005,  9.894E-005
  2, 45,0.05,     2.200,  4.048E-005,  9.961E-005
  2, 46,0.05,     2.250,  4.547E-005,  9.975E-005
  2, 47,0.05,     2.300,  5.046E-005,  9.975E-005
  2, 48,0.05,     2.350,  5.544E-005,  9.919E-005
  2, 49,0.05,     2.400,  6.038E-005,  9.861E-005
  2, 50,0.05,     2.450,  6.530E-005,  9.818E-005
  2, 51,0.05,     2.500,  7.020E-005,  9.740E-005
  2, 52,0.05,     2.550,  7.504E-005,  9.667E-005
  2, 53,0.05,     2.600,  7.986E-005,  9.577E-005
  2, 54,0.05,     2.650,  8.462E-005,  9.496E-005
  2, 55,0.05,     2.700,  8.936E-005,  9.437E-005
  2, 56,0.05,     2.750,  9.406E-005,  9.682E-005
  2, 57,0.05,     2.800,  9.904E-005,  9.597E-005
  2, 58,0.05,     2.850,  1.037E-004,  9.197E-005
  2, 59,0.05,     2.900,  1.082E-004,  9.120E-005
  2, 60,0.05,     2.950,  1.128E-004,  9.051E-005
  2, 61,0.05,     3.000,  1.173E-004,  8.991E-005
  2, 62,0.05,     3.050,  1.218E-004,  8.931E-005
  2, 63,0.05,     3.100,  1.262E-004,  8.854E-005
  2, 64,0.05,     3.150,  1.306E-004,  8.752E-005
  2, 65,0.05,     3.200,  1.350E-004,  8.683E-005
  2, 66,0.05,     3.250,  1.393E-004,  8.632E-005
  2, 67,0.05,     3.300,  1.436E-004,  8.555E-005
  2, 68,0.05,     3.350,  1.479E-004,  8.487E-005
  2, 69,0.05,     3.400,  1.521E-004,  8.410E-005
  2, 70,0.05,     3.450,  1.563E-004,  8.358E-005
  2, 71,0.05,     3.500,  1.604E-004,  8.316E-005
  2, 72,0.05,     3.550,  1.646E-004,  8.221E-005
  2, 73,0.05,     3.600,  1.687E-004,  8.187E-005
  2, 74,0.05,     3.650,  1.728E-004,  8.153E-005
  2, 75,0.05,     3.700,  1.768E-004,  8.059E-005
  2, 76,0.05,     3.750,  1.808E-004,  8.008E-005
  2, 77,0.05,     3.800,  1.848E-004,  7.948E-005
  2, 78,0.05,     3.850,  1.888E-004,  7.862E-005
  2, 79,0.05,     3.900,  1.927E-004,  7.854E-005
  2, 80,0.05,     3.950,  1.966E-004,  7.811E-005
  2, 81,0.05,     4.000,  2.005E-004,  7.759E-005
  2, 82,0.05,     4.050,  2.044E-004,  7.725E-005
  2, 83,0.05,     4.100,  2.082E-004,  7.640E-005
  2, 84,0.05,     4.150,  2.120E-004,  7.588E-005
  2, 85,0.05,     4.200,  2.158E-004,  7.554E-005
  2, 86,0.05,     4.250,  2.196E-004,  7.537E-005
  2, 87,0.05,     4.300,  2.234E-004,  7.477E-005
  2, 88,0.05,     4.350,  2.271E-004,  7.383E-005
  2, 89,0.05,     4.400,  2.307E-004,  7.340E-005
  2, 90,0.05,     4.450,  2.344E-004,  7.323E-005
  2, 91,0.05,     4.500,  2.381E-004,  7.340E-005
  2, 92,0.05,     4.550,  2.417E-004,  7.272E-005
  2, 93,0.05,     4.600,  2.453E-004,  7.195E-005
  2, 94,0.05,     4.650,  2.489E-004,  7.186E-005
  2, 95,0.05,     4.700,  2.525E-004,  7.118E-005
  2, 96,0.05,     4.750,  2.561E-004,  7.084E-005
  2, 97,0.05,     4.800,  2.596E-004,  7.075E-005
  2, 98,0.05,     4.850,  2.631E-004,  7.007E-005
  2, 99,0.05,     4.900,  2.666E-004,  6.955E-005
  2,100,0.05,     4.950,  2.701E-004,  6.947E-005
  2,101,0.05,     5.000,  2.736E-004,  6.947E-005
[TestInfo]
Test Name,NMOS_Id-Vg_gm.2tsd
Test Date,2021-05-20 17:06:54
Test Time,26.345s
Mode,Sweep Measure
Speed,Medium
Hold Time,0.01s
Delay Time,0.01s
Instrument Channel,SMU2,SMU1,SMU3
Force Channel Name,Vgate,Vdrain,Vsource
Force Mode,Voltage Sweep,Voltage Sweep,Voltage Bias
Sweep Mode,VAR1,VAR2,Constant
Sweep Direction,N/A,N/A,N/A
Start/Level,0,0.05,0
Stop/Offset,5,0.05,N/A
Step/Ratio,0.01,0,N/A
Number of Points,501,1,N/A
Compliance,0.1,0.1,0.1
Measure Channel Name,N/A,Idrain,N/A
Measure Mode,N/A,Current Measured,N/A
Measure Range,N/A,Limited Auto = 1nA,N/A
Frequency,N/A,N/A,N/A
AC Level,N/A,N/A,N/A
[TestData]
No,Index,Vdrain(V),GraphX:Vgate(V),GraphY:Idrain(A),GraphY2:gm
  3,  1,0.05,     0.000,  3.143E-013, -3.284E-011
  3,  2,0.05,     0.010, -1.403E-014, -2.231E-011
  3,  3,0.05,     0.020, -1.319E-013, -6.736E-012
  3,  4,0.05,     0.030, -1.487E-013, -1.263E-012
  3,  5,0.05,     0.040, -1.572E-013,  8.420E-013
  3,  6,0.05,     0.050, -1.319E-013,  1.263E-012
  3,  7,0.05,     0.060, -1.319E-013,  8.419E-013
  3,  8,0.05,     0.070, -1.151E-013, -1.263E-012
  3,  9,0.05,     0.080, -1.572E-013, -5.894E-012
  3, 10,0.05,     0.090, -2.329E-013, -2.105E-012
  3, 11,0.05,     0.100, -1.993E-013,  3.789E-012
  3, 12,0.05,     0.110, -1.572E-013,  2.947E-012
  3, 13,0.05,     0.120, -1.403E-013, -3.789E-012
  3, 14,0.05,     0.130, -2.329E-013, -3.789E-012
  3, 15,0.05,     0.140, -2.161E-013,  2.526E-012
  3, 16,0.05,     0.150, -1.824E-013, -1.263E-012
  3, 17,0.05,     0.160, -2.414E-013, -2.947E-012
  3, 18,0.05,     0.170, -2.414E-013,  0.000E+000
  3, 19,0.05,     0.180, -2.414E-013,  4.631E-012
  3, 20,0.05,     0.190, -1.487E-013,  2.526E-012
  3, 21,0.05,     0.200, -1.908E-013, -2.526E-012
  3, 22,0.05,     0.210, -1.993E-013, -2.105E-012
  3, 23,0.05,     0.220, -2.329E-013, -8.420E-013
  3, 24,0.05,     0.230, -2.161E-013, -1.263E-012
  3, 25,0.05,     0.240, -2.582E-013,  4.210E-013
  3, 26,0.05,     0.250, -2.077E-013,  8.420E-013
  3, 27,0.05,     0.260, -2.414E-013, -2.947E-012
  3, 28,0.05,     0.270, -2.666E-013,  4.210E-013
  3, 29,0.05,     0.280, -2.329E-013,  8.419E-013
  3, 30,0.05,     0.290, -2.498E-013, -1.684E-012
  3, 31,0.05,     0.300, -2.666E-013,  0.000E+000
  3, 32,0.05,     0.310, -2.498E-013,  8.419E-013
  3, 33,0.05,     0.320, -2.498E-013,  4.210E-013
  3, 34,0.05,     0.330, -2.414E-013, -4.210E-013
  3, 35,0.05,     0.340, -2.582E-013,  4.210E-013
  3, 36,0.05,     0.350, -2.329E-013,  2.105E-012
  3, 37,0.05,     0.360, -2.161E-013, -1.263E-012
  3, 38,0.05,     0.370, -2.582E-013,  4.210E-013
  3, 39,0.05,     0.380, -2.077E-013, -8.420E-013
  3, 40,0.05,     0.390, -2.750E-013, -8.420E-013
  3, 41,0.05,     0.400, -2.245E-013, -1.263E-012
  3, 42,0.05,     0.410, -3.003E-013, -8.419E-013
  3, 43,0.05,     0.420, -2.414E-013,  5.052E-012
  3, 44,0.05,     0.430, -1.993E-013, -8.420E-013
  3, 45,0.05,     0.440, -2.582E-013, -3.368E-012
  3, 46,0.05,     0.450, -2.666E-013, -1.263E-012
  3, 47,0.05,     0.460, -2.835E-013,  0.000E+000
  3, 48,0.05,     0.470, -2.666E-013,  3.368E-012
  3, 49,0.05,     0.480, -2.161E-013,  2.947E-012
  3, 50,0.05,     0.490, -2.077E-013, -8.419E-013
  3, 51,0.05,     0.500, -2.329E-013, -4.210E-013
  3, 52,0.05,     0.510, -2.161E-013,  0.000E+000
  3, 53,0.05,     0.520, -2.329E-013,  4.210E-013
  3, 54,0.05,     0.530, -2.077E-013,  2.105E-012
  3, 55,0.05,     0.540, -1.908E-013,  4.210E-013
  3, 56,0.05,     0.550, -1.993E-013,  8.420E-013
  3, 57,0.05,     0.560, -1.740E-013,  4.210E-013
  3, 58,0.05,     0.570, -1.908E-013,  1.263E-012
  3, 59,0.05,     0.580, -1.487E-013,  1.684E-012
  3, 60,0.05,     0.590, -1.572E-013, -2.526E-012
  3, 61,0.05,     0.600, -1.993E-013,  4.210E-013
  3, 62,0.05,     0.610, -1.487E-013,  2.105E-012
  3, 63,0.05,     0.620, -1.572E-013,  2.947E-012
  3, 64,0.05,     0.630, -8.980E-014,  2.947E-012
  3, 65,0.05,     0.640, -9.822E-014,  0.000E+000
  3, 66,0.05,     0.650, -8.980E-014,  1.684E-012
  3, 67,0.05,     0.660, -6.454E-014,  4.631E-012
  3, 68,0.05,     0.670,  2.812E-015,  5.052E-012
  3, 69,0.05,     0.680,  3.649E-014, -1.684E-012
  3, 70,0.05,     0.690, -3.087E-014,  6.315E-012
  3, 71,0.05,     0.700,  1.628E-013,  1.010E-011
  3, 72,0.05,     0.710,  1.712E-013,  3.368E-012
  3, 73,0.05,     0.720,  2.301E-013,  6.736E-012
  3, 74,0.05,     0.730,  3.059E-013,  2.947E-012
  3, 75,0.05,     0.740,  2.891E-013,  7.578E-012
  3, 76,0.05,     0.750,  4.575E-013,  1.347E-011
  3, 77,0.05,     0.760,  5.585E-013,  1.305E-011
  3, 78,0.05,     0.770,  7.185E-013,  8.420E-012
  3, 79,0.05,     0.780,  7.269E-013,  1.516E-011
  3, 80,0.05,     0.790,  1.022E-012,  2.736E-011
  3, 81,0.05,     0.800,  1.274E-012,  2.147E-011
  3, 82,0.05,     0.810,  1.451E-012,  1.936E-011
  3, 83,0.05,     0.820,  1.661E-012,  2.778E-011
  3, 84,0.05,     0.830,  2.007E-012,  3.073E-011
  3, 85,0.05,     0.840,  2.276E-012,  3.536E-011
  3, 86,0.05,     0.850,  2.714E-012,  4.547E-011
  3, 87,0.05,     0.860,  3.185E-012,  5.052E-011
  3, 88,0.05,     0.870,  3.724E-012,  5.641E-011
  3, 89,0.05,     0.880,  4.314E-012,  6.820E-011
  3, 90,0.05,     0.890,  5.088E-012,  8.209E-011
  3, 91,0.05,     0.900,  5.955E-012,  8.798E-011
  3, 92,0.05,     0.910,  6.848E-012,  9.935E-011
  3, 93,0.05,     0.920,  7.942E-012,  1.242E-010
  3, 94,0.05,     0.930,  9.332E-012,  1.398E-010
  3, 95,0.05,     0.940,  1.074E-011,  1.621E-010
  3, 96,0.05,     0.950,  1.257E-011,  1.958E-010
  3, 97,0.05,     0.960,  1.465E-011,  2.206E-010
  3, 98,0.05,     0.970,  1.698E-011,  2.623E-010
  3, 99,0.05,     0.980,  1.990E-011,  3.069E-010
  3,100,0.05,     0.990,  2.312E-011,  3.494E-010
  3,101,0.05,     1.000,  2.689E-011,  4.075E-010
  3,102,0.05,     1.010,  3.127E-011,  4.753E-010
  3,103,0.05,     1.020,  3.639E-011,  5.591E-010
  3,104,0.05,     1.030,  4.245E-011,  6.483E-010
  3,105,0.05,     1.040,  4.936E-011,  7.582E-010
  3,106,0.05,     1.050,  5.762E-011,  8.971E-010
  3,107,0.05,     1.060,  6.730E-011,  1.041E-009
  3,108,0.05,     1.070,  7.845E-011,  1.206E-009
  3,109,0.05,     1.080,  9.142E-011,  1.415E-009
  3,110,0.05,     1.090,  1.068E-010,  1.660E-009
  3,111,0.05,     1.100,  1.246E-010,  1.937E-009
  3,112,0.05,     1.110,  1.455E-010,  2.269E-009
  3,113,0.05,     1.120,  1.700E-010,  2.655E-009
  3,114,0.05,     1.130,  1.986E-010,  3.143E-009
  3,115,0.05,     1.140,  2.328E-010,  3.676E-009
  3,116,0.05,     1.150,  2.721E-010,  4.268E-009
  3,117,0.05,     1.160,  3.182E-010,  5.013E-009
  3,118,0.05,     1.170,  3.724E-010,  5.894E-009
  3,119,0.05,     1.180,  4.361E-010,  6.909E-009
  3,120,0.05,     1.190,  5.106E-010,  8.088E-009
  3,121,0.05,     1.200,  5.978E-010,  9.522E-009
  3,122,0.05,     1.210,  7.010E-010,  1.130E-008
  3,123,0.05,     1.220,  8.238E-010,  1.326E-008
  3,124,0.05,     1.230,  9.661E-010,  1.587E-008
  3,125,0.05,     1.240,  1.141E-009,  1.862E-008
  3,126,0.05,     1.250,  1.339E-009,  2.138E-008
  3,127,0.05,     1.260,  1.569E-009,  2.534E-008
  3,128,0.05,     1.270,  1.845E-009,  2.997E-008
  3,129,0.05,     1.280,  2.168E-009,  3.508E-008
  3,130,0.05,     1.290,  2.547E-009,  4.176E-008
  3,131,0.05,     1.300,  3.003E-009,  4.929E-008
  3,132,0.05,     1.310,  3.533E-009,  5.743E-008
  3,133,0.05,     1.320,  4.152E-009,  6.772E-008
  3,134,0.05,     1.330,  4.887E-009,  7.963E-008
  3,135,0.05,     1.340,  5.745E-009,  9.411E-008
  3,136,0.05,     1.350,  6.769E-009,  1.114E-007
  3,137,0.05,     1.360,  7.974E-009,  1.311E-007
  3,138,0.05,     1.370,  9.391E-009,  1.572E-007
  3,139,0.05,     1.380,  1.112E-008,  1.855E-007
  3,140,0.05,     1.390,  1.310E-008,  2.167E-007
  3,141,0.05,     1.400,  1.545E-008,  2.558E-007
  3,142,0.05,     1.410,  1.822E-008,  3.013E-007
  3,143,0.05,     1.420,  2.148E-008,  3.558E-007
  3,144,0.05,     1.430,  2.533E-008,  4.203E-007
  3,145,0.05,     1.440,  2.988E-008,  4.967E-007
  3,146,0.05,     1.450,  3.527E-008,  5.927E-007
  3,147,0.05,     1.460,  4.174E-008,  6.992E-007
  3,148,0.05,     1.470,  4.925E-008,  8.182E-007
  3,149,0.05,     1.480,  5.810E-008,  9.646E-007
  3,150,0.05,     1.490,  6.854E-008,  1.139E-006
  3,151,0.05,     1.500,  8.087E-008,  1.342E-006
  3,152,0.05,     1.510,  9.538E-008,  1.595E-006
  3,153,0.05,     1.520,  1.128E-007,  1.877E-006
  3,154,0.05,     1.530,  1.329E-007,  2.218E-006
  3,155,0.05,     1.540,  1.571E-007,  2.602E-006
  3,156,0.05,     1.550,  1.849E-007,  3.026E-006
  3,157,0.05,     1.560,  2.177E-007,  3.554E-006
  3,158,0.05,     1.570,  2.560E-007,  4.153E-006
  3,159,0.05,     1.580,  3.007E-007,  4.845E-006
  3,160,0.05,     1.590,  3.529E-007,  5.644E-006
  3,161,0.05,     1.600,  4.136E-007,  6.543E-006
  3,162,0.05,     1.610,  4.838E-007,  7.657E-006
  3,163,0.05,     1.620,  5.667E-007,  8.848E-006
  3,164,0.05,     1.630,  6.607E-007,  1.010E-005
  3,165,0.05,     1.640,  7.687E-007,  1.157E-005
  3,166,0.05,     1.650,  8.921E-007,  1.307E-005
  3,167,0.05,     1.660,  1.030E-006,  1.486E-005
  3,168,0.05,     1.670,  1.189E-006,  1.693E-005
  3,169,0.05,     1.680,  1.369E-006,  1.910E-005
  3,170,0.05,     1.690,  1.571E-006,  2.163E-005
  3,171,0.05,     1.700,  1.801E-006,  2.411E-005
  3,172,0.05,     1.710,  2.054E-006,  2.655E-005
  3,173,0.05,     1.720,  2.332E-006,  2.931E-005
  3,174,0.05,     1.730,  2.640E-006,  3.213E-005
  3,175,0.05,     1.740,  2.975E-006,  3.505E-005
  3,176,0.05,     1.750,  3.341E-006,  3.816E-005
  3,177,0.05,     1.760,  3.738E-006,  4.124E-005
  3,178,0.05,     1.770,  4.165E-006,  4.480E-005
  3,179,0.05,     1.780,  4.634E-006,  4.788E-005
  3,180,0.05,     1.790,  5.123E-006,  5.049E-005
  3,181,0.05,     1.800,  5.644E-006,  5.351E-005
  3,182,0.05,     1.810,  6.193E-006,  5.655E-005
  3,183,0.05,     1.820,  6.775E-006,  5.948E-005
  3,184,0.05,     1.830,  7.383E-006,  6.216E-005
  3,185,0.05,     1.840,  8.018E-006,  6.491E-005
  3,186,0.05,     1.850,  8.681E-006,  6.819E-005
  3,187,0.05,     1.860,  9.382E-006,  7.160E-005
  3,188,0.05,     1.870,  1.011E-005,  7.309E-005
  3,189,0.05,     1.880,  1.084E-005,  7.454E-005
  3,190,0.05,     1.890,  1.160E-005,  7.709E-005
  3,191,0.05,     1.900,  1.239E-005,  7.882E-005
  3,192,0.05,     1.910,  1.318E-005,  8.048E-005
  3,193,0.05,     1.920,  1.399E-005,  8.226E-005
  3,194,0.05,     1.930,  1.483E-005,  8.454E-005
  3,195,0.05,     1.940,  1.569E-005,  8.615E-005
  3,196,0.05,     1.950,  1.655E-005,  8.679E-005
  3,197,0.05,     1.960,  1.742E-005,  8.793E-005
  3,198,0.05,     1.970,  1.831E-005,  8.912E-005
  3,199,0.05,     1.980,  1.920E-005,  9.027E-005
  3,200,0.05,     1.990,  2.011E-005,  9.090E-005
  3,201,0.05,     2.000,  2.102E-005,  9.179E-005
  3,202,0.05,     2.010,  2.195E-005,  9.395E-005
  3,203,0.05,     2.020,  2.290E-005,  9.455E-005
  3,204,0.05,     2.030,  2.384E-005,  9.438E-005
  3,205,0.05,     2.040,  2.479E-005,  9.514E-005
  3,206,0.05,     2.050,  2.574E-005,  9.548E-005
  3,207,0.05,     2.060,  2.670E-005,  9.607E-005
  3,208,0.05,     2.070,  2.766E-005,  9.671E-005
  3,209,0.05,     2.080,  2.863E-005,  9.700E-005
  3,210,0.05,     2.090,  2.960E-005,  9.832E-005
  3,211,0.05,     2.100,  3.060E-005,  9.849E-005
  3,212,0.05,     2.110,  3.157E-005,  9.777E-005
  3,213,0.05,     2.120,  3.255E-005,  9.819E-005
  3,214,0.05,     2.130,  3.354E-005,  9.836E-005
  3,215,0.05,     2.140,  3.452E-005,  9.874E-005
  3,216,0.05,     2.150,  3.551E-005,  9.895E-005
  3,217,0.05,     2.160,  3.650E-005,  9.895E-005
  3,218,0.05,     2.170,  3.749E-005,  1.003E-004
  3,219,0.05,     2.180,  3.851E-005,  1.003E-004
  3,220,0.05,     2.190,  3.950E-005,  9.917E-005
  3,221,0.05,     2.200,  4.049E-005,  9.917E-005
  3,222,0.05,     2.210,  4.148E-005,  9.933E-005
  3,223,0.05,     2.220,  4.248E-005,  9.976E-005
  3,224,0.05,     2.230,  4.348E-005,  9.980E-005
  3,225,0.05,     2.240,  4.447E-005,  9.963E-005
  3,226,0.05,     2.250,  4.547E-005,  1.005E-004
  3,227,0.05,     2.260,  4.648E-005,  1.001E-004
  3,228,0.05,     2.270,  4.747E-005,  9.946E-005
  3,229,0.05,     2.280,  4.847E-005,  9.972E-005
  3,230,0.05,     2.290,  4.946E-005,  9.955E-005
  3,231,0.05,     2.300,  5.046E-005,  9.942E-005
  3,232,0.05,     2.310,  5.145E-005,  9.929E-005
  3,233,0.05,     2.320,  5.245E-005,  9.950E-005
  3,234,0.05,     2.330,  5.344E-005,  1.003E-004
  3,235,0.05,     2.340,  5.445E-005,  1.002E-004
  3,236,0.05,     2.350,  5.545E-005,  9.891E-005
  3,237,0.05,     2.360,  5.643E-005,  9.895E-005
  3,238,0.05,     2.370,  5.743E-005,  9.849E-005
  3,239,0.05,     2.380,  5.840E-005,  9.811E-005
  3,240,0.05,     2.390,  5.939E-005,  9.870E-005
  3,241,0.05,     2.400,  6.038E-005,  9.840E-005
  3,242,0.05,     2.410,  6.136E-005,  9.917E-005
  3,243,0.05,     2.420,  6.236E-005,  9.929E-005
  3,244,0.05,     2.430,  6.334E-005,  9.844E-005
  3,245,0.05,     2.440,  6.433E-005,  9.832E-005
  3,246,0.05,     2.450,  6.531E-005,  9.764E-005
  3,247,0.05,     2.460,  6.628E-005,  9.755E-005
  3,248,0.05,     2.470,  6.726E-005,  9.785E-005
  3,249,0.05,     2.480,  6.824E-005,  9.760E-005
  3,250,0.05,     2.490,  6.921E-005,  9.845E-005
  3,251,0.05,     2.500,  7.021E-005,  9.832E-005
  3,252,0.05,     2.510,  7.118E-005,  9.688E-005
  3,253,0.05,     2.520,  7.214E-005,  9.654E-005
  3,254,0.05,     2.530,  7.311E-005,  9.671E-005
  3,255,0.05,     2.540,  7.408E-005,  9.641E-005
  3,256,0.05,     2.550,  7.504E-005,  9.628E-005
  3,257,0.05,     2.560,  7.600E-005,  9.645E-005
  3,258,0.05,     2.570,  7.697E-005,  9.747E-005
  3,259,0.05,     2.580,  7.795E-005,  9.713E-005
  3,260,0.05,     2.590,  7.891E-005,  9.531E-005
  3,261,0.05,     2.600,  7.986E-005,  9.522E-005
  3,262,0.05,     2.610,  8.081E-005,  9.548E-005
  3,263,0.05,     2.620,  8.177E-005,  9.535E-005
  3,264,0.05,     2.630,  8.272E-005,  9.544E-005
  3,265,0.05,     2.640,  8.368E-005,  9.548E-005
  3,266,0.05,     2.650,  8.463E-005,  9.569E-005
  3,267,0.05,     2.660,  8.559E-005,  9.565E-005
  3,268,0.05,     2.670,  8.654E-005,  9.442E-005
  3,269,0.05,     2.680,  8.748E-005,  9.446E-005
  3,270,0.05,     2.690,  8.843E-005,  9.459E-005
  3,271,0.05,     2.700,  8.937E-005,  9.374E-005
  3,272,0.05,     2.710,  9.031E-005,  9.353E-005
  3,273,0.05,     2.720,  9.124E-005,  9.344E-005
  3,274,0.05,     2.730,  9.218E-005,  9.366E-005
  3,275,0.05,     2.740,  9.312E-005,  9.378E-005
  3,276,0.05,     2.750,  9.405E-005,  9.302E-005
  3,277,0.05,     2.760,  9.498E-005,  9.281E-005
  3,278,0.05,     2.770,  9.591E-005,  9.289E-005
  3,279,0.05,     2.780,  9.683E-005,  9.251E-005
  3,280,0.05,     2.790,  9.776E-005,  1.100E-004
  3,281,0.05,     2.800,  9.903E-005,  1.091E-004
  3,282,0.05,     2.810,  9.994E-005,  9.111E-005
  3,283,0.05,     2.820,  1.009E-004,  9.282E-005
  3,284,0.05,     2.830,  1.018E-004,  9.368E-005
  3,285,0.05,     2.840,  1.027E-004,  9.154E-005
  3,286,0.05,     2.850,  1.036E-004,  9.154E-005
  3,287,0.05,     2.860,  1.046E-004,  9.239E-005
  3,288,0.05,     2.870,  1.055E-004,  9.154E-005
  3,289,0.05,     2.880,  1.064E-004,  9.068E-005
  3,290,0.05,     2.890,  1.073E-004,  9.154E-005
  3,291,0.05,     2.900,  1.082E-004,  9.239E-005
  3,292,0.05,     2.910,  1.091E-004,  9.111E-005
  3,293,0.05,     2.920,  1.100E-004,  9.068E-005
  3,294,0.05,     2.930,  1.110E-004,  9.111E-005
  3,295,0.05,     2.940,  1.119E-004,  8.983E-005
  3,296,0.05,     2.950,  1.127E-004,  8.983E-005
  3,297,0.05,     2.960,  1.137E-004,  9.068E-005
  3,298,0.05,     2.970,  1.146E-004,  9.068E-005
  3,299,0.05,     2.980,  1.155E-004,  9.197E-005
  3,300,0.05,     2.990,  1.164E-004,  9.068E-005
  3,301,0.05,     3.000,  1.173E-004,  8.940E-005
  3,302,0.05,     3.010,  1.182E-004,  8.983E-005
  3,303,0.05,     3.020,  1.191E-004,  8.940E-005
  3,304,0.05,     3.030,  1.200E-004,  9.026E-005
  3,305,0.05,     3.040,  1.209E-004,  8.897E-005
  3,306,0.05,     3.050,  1.218E-004,  8.983E-005
  3,307,0.05,     3.060,  1.227E-004,  9.111E-005
  3,308,0.05,     3.070,  1.236E-004,  8.812E-005
  3,309,0.05,     3.080,  1.245E-004,  8.769E-005
  3,310,0.05,     3.090,  1.253E-004,  8.812E-005
  3,311,0.05,     3.100,  1.262E-004,  8.726E-005
  3,312,0.05,     3.110,  1.271E-004,  8.812E-005
  3,313,0.05,     3.120,  1.280E-004,  8.769E-005
  3,314,0.05,     3.130,  1.288E-004,  8.726E-005
  3,315,0.05,     3.140,  1.297E-004,  8.897E-005
  3,316,0.05,     3.150,  1.306E-004,  8.854E-005
  3,317,0.05,     3.160,  1.315E-004,  8.726E-005
  3,318,0.05,     3.170,  1.324E-004,  8.598E-005
  3,319,0.05,     3.180,  1.332E-004,  8.641E-005
  3,320,0.05,     3.190,  1.341E-004,  8.641E-005
  3,321,0.05,     3.200,  1.349E-004,  8.641E-005
  3,322,0.05,     3.210,  1.358E-004,  8.812E-005
  3,323,0.05,     3.220,  1.367E-004,  8.683E-005
  3,324,0.05,     3.230,  1.375E-004,  8.555E-005
  3,325,0.05,     3.240,  1.384E-004,  8.598E-005
  3,326,0.05,     3.250,  1.393E-004,  8.598E-005
  3,327,0.05,     3.260,  1.401E-004,  8.769E-005
  3,328,0.05,     3.270,  1.410E-004,  8.598E-005
  3,329,0.05,     3.280,  1.419E-004,  8.384E-005
  3,330,0.05,     3.290,  1.427E-004,  8.683E-005
  3,331,0.05,     3.300,  1.436E-004,  8.641E-005
  3,332,0.05,     3.310,  1.444E-004,  8.512E-005
  3,333,0.05,     3.320,  1.453E-004,  8.598E-005
  3,334,0.05,     3.330,  1.461E-004,  8.469E-005
  3,335,0.05,     3.340,  1.470E-004,  8.341E-005
  3,336,0.05,     3.350,  1.478E-004,  8.470E-005
  3,337,0.05,     3.360,  1.487E-004,  8.598E-005
  3,338,0.05,     3.370,  1.495E-004,  8.512E-005
  3,339,0.05,     3.380,  1.504E-004,  8.470E-005
  3,340,0.05,     3.390,  1.512E-004,  8.384E-005
  3,341,0.05,     3.400,  1.521E-004,  8.384E-005
  3,342,0.05,     3.410,  1.529E-004,  8.512E-005
  3,343,0.05,     3.420,  1.538E-004,  8.427E-005
  3,344,0.05,     3.430,  1.546E-004,  8.256E-005
  3,345,0.05,     3.440,  1.554E-004,  8.341E-005
  3,346,0.05,     3.450,  1.563E-004,  8.555E-005
  3,347,0.05,     3.460,  1.571E-004,  8.427E-005
  3,348,0.05,     3.470,  1.579E-004,  8.341E-005
  3,349,0.05,     3.480,  1.588E-004,  8.256E-005
  3,350,0.05,     3.490,  1.596E-004,  8.170E-005
  3,351,0.05,     3.500,  1.604E-004,  8.341E-005
  3,352,0.05,     3.510,  1.613E-004,  8.256E-005
  3,353,0.05,     3.520,  1.621E-004,  8.256E-005
  3,354,0.05,     3.530,  1.629E-004,  8.341E-005
  3,355,0.05,     3.540,  1.637E-004,  8.170E-005
  3,356,0.05,     3.550,  1.645E-004,  8.213E-005
  3,357,0.05,     3.560,  1.654E-004,  8.256E-005
  3,358,0.05,     3.570,  1.662E-004,  8.213E-005
  3,359,0.05,     3.580,  1.670E-004,  8.256E-005
  3,360,0.05,     3.590,  1.679E-004,  7.999E-005
  3,361,0.05,     3.600,  1.686E-004,  7.956E-005
  3,362,0.05,     3.610,  1.694E-004,  8.256E-005
  3,363,0.05,     3.620,  1.703E-004,  8.213E-005
  3,364,0.05,     3.630,  1.711E-004,  8.170E-005
  3,365,0.05,     3.640,  1.719E-004,  8.127E-005
  3,366,0.05,     3.650,  1.727E-004,  7.999E-005
  3,367,0.05,     3.660,  1.735E-004,  8.170E-005
  3,368,0.05,     3.670,  1.743E-004,  8.213E-005
  3,369,0.05,     3.680,  1.752E-004,  8.042E-005
  3,370,0.05,     3.690,  1.760E-004,  8.085E-005
  3,371,0.05,     3.700,  1.768E-004,  8.170E-005
  3,372,0.05,     3.710,  1.776E-004,  7.956E-005
  3,373,0.05,     3.720,  1.784E-004,  7.913E-005
  3,374,0.05,     3.730,  1.792E-004,  8.042E-005
  3,375,0.05,     3.740,  1.800E-004,  7.956E-005
  3,376,0.05,     3.750,  1.808E-004,  7.913E-005
  3,377,0.05,     3.760,  1.816E-004,  7.913E-005
  3,378,0.05,     3.770,  1.823E-004,  8.042E-005
  3,379,0.05,     3.780,  1.832E-004,  8.127E-005
  3,380,0.05,     3.790,  1.840E-004,  7.999E-005
  3,381,0.05,     3.800,  1.848E-004,  7.999E-005
  3,382,0.05,     3.810,  1.856E-004,  7.871E-005
  3,383,0.05,     3.820,  1.863E-004,  7.913E-005
  3,384,0.05,     3.830,  1.872E-004,  7.956E-005
  3,385,0.05,     3.840,  1.879E-004,  7.700E-005
  3,386,0.05,     3.850,  1.887E-004,  7.913E-005
  3,387,0.05,     3.860,  1.895E-004,  8.127E-005
  3,388,0.05,     3.870,  1.903E-004,  7.913E-005
  3,389,0.05,     3.880,  1.911E-004,  7.828E-005
  3,390,0.05,     3.890,  1.919E-004,  7.742E-005
  3,391,0.05,     3.900,  1.926E-004,  7.785E-005
  3,392,0.05,     3.910,  1.934E-004,  7.828E-005
  3,393,0.05,     3.920,  1.942E-004,  7.785E-005
  3,394,0.05,     3.930,  1.950E-004,  7.871E-005
  3,395,0.05,     3.940,  1.958E-004,  7.871E-005
  3,396,0.05,     3.950,  1.966E-004,  7.871E-005
  3,397,0.05,     3.960,  1.974E-004,  7.700E-005
  3,398,0.05,     3.970,  1.981E-004,  7.828E-005
  3,399,0.05,     3.980,  1.989E-004,  7.871E-005
  3,400,0.05,     3.990,  1.997E-004,  7.700E-005
  3,401,0.05,     4.000,  2.005E-004,  7.871E-005
  3,402,0.05,     4.010,  2.013E-004,  7.828E-005
  3,403,0.05,     4.020,  2.020E-004,  7.657E-005
  3,404,0.05,     4.030,  2.028E-004,  7.742E-005
  3,405,0.05,     4.040,  2.036E-004,  7.742E-005
  3,406,0.05,     4.050,  2.043E-004,  7.657E-005
  3,407,0.05,     4.060,  2.051E-004,  7.614E-005
  3,408,0.05,     4.070,  2.059E-004,  7.614E-005
  3,409,0.05,     4.080,  2.066E-004,  7.614E-005
  3,410,0.05,     4.090,  2.074E-004,  7.742E-005
  3,411,0.05,     4.100,  2.082E-004,  7.614E-005
  3,412,0.05,     4.110,  2.089E-004,  7.400E-005
  3,413,0.05,     4.120,  2.097E-004,  7.742E-005
  3,414,0.05,     4.130,  2.105E-004,  7.785E-005
  3,415,0.05,     4.140,  2.112E-004,  7.400E-005
  3,416,0.05,     4.150,  2.119E-004,  7.400E-005
  3,417,0.05,     4.160,  2.127E-004,  7.699E-005
  3,418,0.05,     4.170,  2.135E-004,  7.700E-005
  3,419,0.05,     4.180,  2.142E-004,  7.486E-005
  3,420,0.05,     4.190,  2.150E-004,  7.443E-005
  3,421,0.05,     4.200,  2.157E-004,  7.657E-005
  3,422,0.05,     4.210,  2.165E-004,  7.614E-005
  3,423,0.05,     4.220,  2.172E-004,  7.528E-005
  3,424,0.05,     4.230,  2.180E-004,  7.486E-005
  3,425,0.05,     4.240,  2.187E-004,  7.400E-005
  3,426,0.05,     4.250,  2.195E-004,  7.486E-005
  3,427,0.05,     4.260,  2.202E-004,  7.486E-005
  3,428,0.05,     4.270,  2.210E-004,  7.486E-005
  3,429,0.05,     4.280,  2.217E-004,  7.571E-005
  3,430,0.05,     4.290,  2.225E-004,  7.486E-005
  3,431,0.05,     4.300,  2.232E-004,  7.315E-005
  3,432,0.05,     4.310,  2.240E-004,  7.486E-005
  3,433,0.05,     4.320,  2.247E-004,  7.400E-005
  3,434,0.05,     4.330,  2.254E-004,  7.400E-005
  3,435,0.05,     4.340,  2.262E-004,  7.400E-005
  3,436,0.05,     4.350,  2.269E-004,  7.229E-005
  3,437,0.05,     4.360,  2.277E-004,  7.614E-005
  3,438,0.05,     4.370,  2.284E-004,  7.571E-005
  3,439,0.05,     4.380,  2.292E-004,  7.357E-005
  3,440,0.05,     4.390,  2.299E-004,  7.357E-005
  3,441,0.05,     4.400,  2.306E-004,  7.443E-005
  3,442,0.05,     4.410,  2.314E-004,  7.614E-005
  3,443,0.05,     4.420,  2.322E-004,  7.443E-005
  3,444,0.05,     4.430,  2.329E-004,  7.272E-005
  3,445,0.05,     4.440,  2.336E-004,  7.272E-005
  3,446,0.05,     4.450,  2.343E-004,  7.443E-005
  3,447,0.05,     4.460,  2.351E-004,  7.272E-005
  3,448,0.05,     4.470,  2.358E-004,  7.315E-005
  3,449,0.05,     4.480,  2.366E-004,  7.614E-005
  3,450,0.05,     4.490,  2.373E-004,  7.443E-005
  3,451,0.05,     4.500,  2.381E-004,  7.229E-005
  3,452,0.05,     4.510,  2.388E-004,  7.143E-005
  3,453,0.05,     4.520,  2.395E-004,  7.315E-005
  3,454,0.05,     4.530,  2.402E-004,  7.229E-005
  3,455,0.05,     4.540,  2.409E-004,  7.186E-005
  3,456,0.05,     4.550,  2.417E-004,  7.229E-005
  3,457,0.05,     4.560,  2.424E-004,  7.143E-005
  3,458,0.05,     4.570,  2.431E-004,  7.272E-005
  3,459,0.05,     4.580,  2.438E-004,  7.272E-005
  3,460,0.05,     4.590,  2.446E-004,  7.357E-005
  3,461,0.05,     4.600,  2.453E-004,  7.229E-005
  3,462,0.05,     4.610,  2.460E-004,  7.144E-005
  3,463,0.05,     4.620,  2.467E-004,  7.229E-005
  3,464,0.05,     4.630,  2.474E-004,  7.101E-005
  3,465,0.05,     4.640,  2.482E-004,  7.144E-005
  3,466,0.05,     4.650,  2.489E-004,  6.972E-005
  3,467,0.05,     4.660,  2.496E-004,  7.229E-005
  3,468,0.05,     4.670,  2.503E-004,  7.315E-005
  3,469,0.05,     4.680,  2.510E-004,  7.015E-005
  3,470,0.05,     4.690,  2.517E-004,  7.101E-005
  3,471,0.05,     4.700,  2.524E-004,  6.887E-005
  3,472,0.05,     4.710,  2.531E-004,  7.186E-005
  3,473,0.05,     4.720,  2.539E-004,  7.272E-005
  3,474,0.05,     4.730,  2.546E-004,  7.144E-005
  3,475,0.05,     4.740,  2.553E-004,  7.101E-005
  3,476,0.05,     4.750,  2.560E-004,  7.015E-005
  3,477,0.05,     4.760,  2.567E-004,  7.272E-005
  3,478,0.05,     4.770,  2.574E-004,  7.186E-005
  3,479,0.05,     4.780,  2.581E-004,  7.058E-005
  3,480,0.05,     4.790,  2.588E-004,  7.272E-005
  3,481,0.05,     4.800,  2.596E-004,  6.801E-005
  3,482,0.05,     4.810,  2.602E-004,  6.673E-005
  3,483,0.05,     4.820,  2.609E-004,  7.186E-005
  3,484,0.05,     4.830,  2.616E-004,  7.186E-005
  3,485,0.05,     4.840,  2.624E-004,  7.101E-005
  3,486,0.05,     4.850,  2.631E-004,  6.801E-005
  3,487,0.05,     4.860,  2.637E-004,  7.015E-005
  3,488,0.05,     4.870,  2.645E-004,  7.186E-005
  3,489,0.05,     4.880,  2.652E-004,  7.144E-005
  3,490,0.05,     4.890,  2.659E-004,  7.229E-005
  3,491,0.05,     4.900,  2.666E-004,  7.101E-005
  3,492,0.05,     4.910,  2.673E-004,  6.930E-005
  3,493,0.05,     4.920,  2.680E-004,  7.058E-005
  3,494,0.05,     4.930,  2.687E-004,  6.844E-005
  3,495,0.05,     4.940,  2.694E-004,  6.673E-005
  3,496,0.05,     4.950,  2.701E-004,  6.929E-005
  3,497,0.05,     4.960,  2.708E-004,  6.887E-005
  3,498,0.05,     4.970,  2.714E-004,  7.058E-005
  3,499,0.05,     4.980,  2.722E-004,  6.972E-005
  3,500,0.05,     4.990,  2.728E-004,  6.844E-005
  3,501,0.05,     5.000,  2.735E-004,  7.015E-005
