[Device_info]
TestModelName=Resistor
NPLC=Short
Mode=I-Mode
[SMU_Channel]
Resistor=SMU1
Resistor_g=SMU2
[SMU_Setup]
Start=0.0001
Stop=0.01
Step=0.0001
Output_V=0
Input_Icom=20
Output_Icom=100m
HoldTime=2
DelayTime=0
[GraphInfo]
GraphTitle=RES-I
X_Title=Current (A)
X_Min=0.0001
X_Max=0.01
Y_Title=Voltage (V)
Y_Min=0
Y_Max=10
TestCount=1
[TestInfo]
Test Name,RES-I
Test Date,2021-01-22
Test Time,17:32:31
Tact time,5.983(sec)
[TestData]
No,Index,GraphX:Current(A),GraphY:Voltage(V)
  1,  1,  1.000E-004,     0.101
  1,  2,  2.000E-004,     0.200
  1,  3,  3.000E-004,     0.300
  1,  4,  4.000E-004,     0.400
  1,  5,  5.000E-004,     0.500
  1,  6,  6.000E-004,     0.599
  1,  7,  7.000E-004,     0.699
  1,  8,  8.000E-004,     0.799
  1,  9,  9.000E-004,     0.899
  1, 10,  1.000E-003,     0.998
  1, 11,  1.100E-003,     1.098
  1, 12,  1.200E-003,     1.198
  1, 13,  1.300E-003,     1.298
  1, 14,  1.400E-003,     1.397
  1, 15,  1.500E-003,     1.497
  1, 16,  1.600E-003,     1.597
  1, 17,  1.700E-003,     1.697
  1, 18,  1.800E-003,     1.796
  1, 19,  1.900E-003,     1.896
  1, 20,  2.000E-003,     1.996
  1, 21,  2.100E-003,     2.096
  1, 22,  2.200E-003,     2.196
  1, 23,  2.300E-003,     2.296
  1, 24,  2.400E-003,     2.395
  1, 25,  2.500E-003,     2.495
  1, 26,  2.600E-003,     2.595
  1, 27,  2.700E-003,     2.694
  1, 28,  2.800E-003,     2.794
  1, 29,  2.900E-003,     2.894
  1, 30,  3.000E-003,     2.994
  1, 31,  3.100E-003,     3.094
  1, 32,  3.200E-003,     3.193
  1, 33,  3.300E-003,     3.293
  1, 34,  3.400E-003,     3.393
  1, 35,  3.500E-003,     3.492
  1, 36,  3.600E-003,     3.592
  1, 37,  3.700E-003,     3.692
  1, 38,  3.800E-003,     3.792
  1, 39,  3.900E-003,     3.891
  1, 40,  4.000E-003,     3.991
  1, 41,  4.100E-003,     4.091
  1, 42,  4.200E-003,     4.191
  1, 43,  4.300E-003,     4.291
  1, 44,  4.400E-003,     4.390
  1, 45,  4.500E-003,     4.490
  1, 46,  4.600E-003,     4.590
  1, 47,  4.700E-003,     4.690
  1, 48,  4.800E-003,     4.789
  1, 49,  4.900E-003,     4.889
  1, 50,  5.000E-003,     4.989
  1, 51,  5.100E-003,     5.089
  1, 52,  5.200E-003,     5.188
  1, 53,  5.300E-003,     5.288
  1, 54,  5.400E-003,     5.388
  1, 55,  5.500E-003,     5.489
  1, 56,  5.600E-003,     5.588
  1, 57,  5.700E-003,     5.688
  1, 58,  5.800E-003,     5.787
  1, 59,  5.900E-003,     5.887
  1, 60,  6.000E-003,     5.987
  1, 61,  6.100E-003,     6.087
  1, 62,  6.200E-003,     6.186
  1, 63,  6.300E-003,     6.286
  1, 64,  6.400E-003,     6.386
  1, 65,  6.500E-003,     6.486
  1, 66,  6.600E-003,     6.586
  1, 67,  6.700E-003,     6.685
  1, 68,  6.800E-003,     6.785
  1, 69,  6.900E-003,     6.885
  1, 70,  7.000E-003,     6.984
  1, 71,  7.100E-003,     7.084
  1, 72,  7.200E-003,     7.184
  1, 73,  7.300E-003,     7.284
  1, 74,  7.400E-003,     7.384
  1, 75,  7.500E-003,     7.483
  1, 76,  7.600E-003,     7.583
  1, 77,  7.700E-003,     7.683
  1, 78,  7.800E-003,     7.782
  1, 79,  7.900E-003,     7.882
  1, 80,  8.000E-003,     7.982
  1, 81,  8.100E-003,     8.081
  1, 82,  8.200E-003,     8.181
  1, 83,  8.300E-003,     8.281
  1, 84,  8.400E-003,     8.381
  1, 85,  8.500E-003,     8.481
  1, 86,  8.600E-003,     8.581
  1, 87,  8.700E-003,     8.680
  1, 88,  8.800E-003,     8.780
  1, 89,  8.900E-003,     8.880
  1, 90,  9.000E-003,     8.979
  1, 91,  9.100E-003,     9.079
  1, 92,  9.200E-003,     9.179
  1, 93,  9.300E-003,     9.278
  1, 94,  9.400E-003,     9.378
  1, 95,  9.500E-003,     9.478
  1, 96,  9.600E-003,     9.578
  1, 97,  9.700E-003,     9.678
  1, 98,  9.800E-003,     9.777
  1, 99,  9.900E-003,     9.877
  1,100,  1.000E-002,     9.976
