[Device_info]
TestModelName=Resistor
NPLC=Short
Mode=I-Mode
[SMU_Channel]
Resistor=SMU1
Resistor_g=SMU2
[SMU_Setup]
Start=0.0001
Stop=0.01
Step=0.0001
Output_V=0
Input_Icom=20
Output_Icom=100m
HoldTime=2
DelayTime=0
[GraphInfo]
GraphTitle=RES-I
X_Title=Current (A)
X_Min=0.0001
X_Max=0.01
Y_Title=Voltage (V)
Y_Min=0
Y_Max=10
TestCount=3
[TestInfo]
Test Name,RES-I
Test Date,2021-01-22
Test Time,17:32:31
Tact time,5.983(sec)
[TestData]
No,Index,GraphX:Current(A),GraphY:Voltage(V)
  1,  1,  1.000E-004,     0.101
  1,  2,  2.000E-004,     0.200
  1,  3,  3.000E-004,     0.300
  1,  4,  4.000E-004,     0.400
  1,  5,  5.000E-004,     0.500
  1,  6,  6.000E-004,     0.599
  1,  7,  7.000E-004,     0.699
  1,  8,  8.000E-004,     0.799
  1,  9,  9.000E-004,     0.899
  1, 10,  1.000E-003,     0.998
  1, 11,  1.100E-003,     1.098
  1, 12,  1.200E-003,     1.198
  1, 13,  1.300E-003,     1.298
  1, 14,  1.400E-003,     1.397
  1, 15,  1.500E-003,     1.497
  1, 16,  1.600E-003,     1.597
  1, 17,  1.700E-003,     1.697
  1, 18,  1.800E-003,     1.796
  1, 19,  1.900E-003,     1.896
  1, 20,  2.000E-003,     1.996
  1, 21,  2.100E-003,     2.096
  1, 22,  2.200E-003,     2.196
  1, 23,  2.300E-003,     2.296
  1, 24,  2.400E-003,     2.395
  1, 25,  2.500E-003,     2.495
  1, 26,  2.600E-003,     2.595
  1, 27,  2.700E-003,     2.694
  1, 28,  2.800E-003,     2.794
  1, 29,  2.900E-003,     2.894
  1, 30,  3.000E-003,     2.994
  1, 31,  3.100E-003,     3.094
  1, 32,  3.200E-003,     3.193
  1, 33,  3.300E-003,     3.293
  1, 34,  3.400E-003,     3.393
  1, 35,  3.500E-003,     3.492
  1, 36,  3.600E-003,     3.592
  1, 37,  3.700E-003,     3.692
  1, 38,  3.800E-003,     3.792
  1, 39,  3.900E-003,     3.891
  1, 40,  4.000E-003,     3.991
  1, 41,  4.100E-003,     4.091
  1, 42,  4.200E-003,     4.191
  1, 43,  4.300E-003,     4.291
  1, 44,  4.400E-003,     4.390
  1, 45,  4.500E-003,     4.490
  1, 46,  4.600E-003,     4.590
  1, 47,  4.700E-003,     4.690
  1, 48,  4.800E-003,     4.789
  1, 49,  4.900E-003,     4.889
  1, 50,  5.000E-003,     4.989
  1, 51,  5.100E-003,     5.089
  1, 52,  5.200E-003,     5.188
  1, 53,  5.300E-003,     5.288
  1, 54,  5.400E-003,     5.388
  1, 55,  5.500E-003,     5.489
  1, 56,  5.600E-003,     5.588
  1, 57,  5.700E-003,     5.688
  1, 58,  5.800E-003,     5.787
  1, 59,  5.900E-003,     5.887
  1, 60,  6.000E-003,     5.987
  1, 61,  6.100E-003,     6.087
  1, 62,  6.200E-003,     6.186
  1, 63,  6.300E-003,     6.286
  1, 64,  6.400E-003,     6.386
  1, 65,  6.500E-003,     6.486
  1, 66,  6.600E-003,     6.586
  1, 67,  6.700E-003,     6.685
  1, 68,  6.800E-003,     6.785
  1, 69,  6.900E-003,     6.885
  1, 70,  7.000E-003,     6.984
  1, 71,  7.100E-003,     7.084
  1, 72,  7.200E-003,     7.184
  1, 73,  7.300E-003,     7.284
  1, 74,  7.400E-003,     7.384
  1, 75,  7.500E-003,     7.483
  1, 76,  7.600E-003,     7.583
  1, 77,  7.700E-003,     7.683
  1, 78,  7.800E-003,     7.782
  1, 79,  7.900E-003,     7.882
  1, 80,  8.000E-003,     7.982
  1, 81,  8.100E-003,     8.081
  1, 82,  8.200E-003,     8.181
  1, 83,  8.300E-003,     8.281
  1, 84,  8.400E-003,     8.381
  1, 85,  8.500E-003,     8.481
  1, 86,  8.600E-003,     8.581
  1, 87,  8.700E-003,     8.680
  1, 88,  8.800E-003,     8.780
  1, 89,  8.900E-003,     8.880
  1, 90,  9.000E-003,     8.979
  1, 91,  9.100E-003,     9.079
  1, 92,  9.200E-003,     9.179
  1, 93,  9.300E-003,     9.278
  1, 94,  9.400E-003,     9.378
  1, 95,  9.500E-003,     9.478
  1, 96,  9.600E-003,     9.578
  1, 97,  9.700E-003,     9.678
  1, 98,  9.800E-003,     9.777
  1, 99,  9.900E-003,     9.877
  1,100,  1.000E-002,     9.976
[TestInfo]
Test Name,RES-I
Test Date,2021-01-22
Test Time,17:33:25
Tact time,6.253(sec)
[TestData]
No,Index,GraphX:Current(A),GraphY:Voltage(V)
  2,  1,  1.000E-004,     0.101
  2,  2,  2.000E-004,     0.200
  2,  3,  3.000E-004,     0.300
  2,  4,  4.000E-004,     0.400
  2,  5,  5.000E-004,     0.499
  2,  6,  6.000E-004,     0.599
  2,  7,  7.000E-004,     0.699
  2,  8,  8.000E-004,     0.799
  2,  9,  9.000E-004,     0.898
  2, 10,  1.000E-003,     0.998
  2, 11,  1.100E-003,     1.098
  2, 12,  1.200E-003,     1.198
  2, 13,  1.300E-003,     1.297
  2, 14,  1.400E-003,     1.397
  2, 15,  1.500E-003,     1.497
  2, 16,  1.600E-003,     1.597
  2, 17,  1.700E-003,     1.696
  2, 18,  1.800E-003,     1.796
  2, 19,  1.900E-003,     1.896
  2, 20,  2.000E-003,     1.996
  2, 21,  2.100E-003,     2.096
  2, 22,  2.200E-003,     2.196
  2, 23,  2.300E-003,     2.295
  2, 24,  2.400E-003,     2.395
  2, 25,  2.500E-003,     2.495
  2, 26,  2.600E-003,     2.595
  2, 27,  2.700E-003,     2.694
  2, 28,  2.800E-003,     2.794
  2, 29,  2.900E-003,     2.894
  2, 30,  3.000E-003,     2.994
  2, 31,  3.100E-003,     3.093
  2, 32,  3.200E-003,     3.193
  2, 33,  3.300E-003,     3.293
  2, 34,  3.400E-003,     3.393
  2, 35,  3.500E-003,     3.492
  2, 36,  3.600E-003,     3.592
  2, 37,  3.700E-003,     3.692
  2, 38,  3.800E-003,     3.792
  2, 39,  3.900E-003,     3.891
  2, 40,  4.000E-003,     3.991
  2, 41,  4.100E-003,     4.091
  2, 42,  4.200E-003,     4.191
  2, 43,  4.300E-003,     4.291
  2, 44,  4.400E-003,     4.390
  2, 45,  4.500E-003,     4.490
  2, 46,  4.600E-003,     4.590
  2, 47,  4.700E-003,     4.689
  2, 48,  4.800E-003,     4.789
  2, 49,  4.900E-003,     4.889
  2, 50,  5.000E-003,     4.989
  2, 51,  5.100E-003,     5.088
  2, 52,  5.200E-003,     5.188
  2, 53,  5.300E-003,     5.288
  2, 54,  5.400E-003,     5.388
  2, 55,  5.500E-003,     5.488
  2, 56,  5.600E-003,     5.588
  2, 57,  5.700E-003,     5.687
  2, 58,  5.800E-003,     5.787
  2, 59,  5.900E-003,     5.887
  2, 60,  6.000E-003,     5.987
  2, 61,  6.100E-003,     6.086
  2, 62,  6.200E-003,     6.186
  2, 63,  6.300E-003,     6.286
  2, 64,  6.400E-003,     6.386
  2, 65,  6.500E-003,     6.486
  2, 66,  6.600E-003,     6.585
  2, 67,  6.700E-003,     6.685
  2, 68,  6.800E-003,     6.785
  2, 69,  6.900E-003,     6.885
  2, 70,  7.000E-003,     6.984
  2, 71,  7.100E-003,     7.084
  2, 72,  7.200E-003,     7.184
  2, 73,  7.300E-003,     7.284
  2, 74,  7.400E-003,     7.383
  2, 75,  7.500E-003,     7.483
  2, 76,  7.600E-003,     7.583
  2, 77,  7.700E-003,     7.682
  2, 78,  7.800E-003,     7.782
  2, 79,  7.900E-003,     7.882
  2, 80,  8.000E-003,     7.982
  2, 81,  8.100E-003,     8.081
  2, 82,  8.200E-003,     8.181
  2, 83,  8.300E-003,     8.281
  2, 84,  8.400E-003,     8.381
  2, 85,  8.500E-003,     8.481
  2, 86,  8.600E-003,     8.580
  2, 87,  8.700E-003,     8.680
  2, 88,  8.800E-003,     8.780
  2, 89,  8.900E-003,     8.879
  2, 90,  9.000E-003,     8.979
  2, 91,  9.100E-003,     9.079
  2, 92,  9.200E-003,     9.179
  2, 93,  9.300E-003,     9.278
  2, 94,  9.400E-003,     9.378
  2, 95,  9.500E-003,     9.478
  2, 96,  9.600E-003,     9.577
  2, 97,  9.700E-003,     9.677
  2, 98,  9.800E-003,     9.777
  2, 99,  9.900E-003,     9.877
  2,100,  1.000E-002,     9.976
[TestInfo]
Test Name,RES-I
Test Date,2021-01-22
Test Time,17:33:34
Tact time,8.937(sec)
[TestData]
No,Index,GraphX:Current(A),GraphY:Voltage(V)
  3,  1,  1.000E-004,     0.101
  3,  2,  2.000E-004,     0.200
  3,  3,  3.000E-004,     0.300
  3,  4,  4.000E-004,     0.400
  3,  5,  5.000E-004,     0.499
  3,  6,  6.000E-004,     0.599
  3,  7,  7.000E-004,     0.699
  3,  8,  8.000E-004,     0.799
  3,  9,  9.000E-004,     0.898
  3, 10,  1.000E-003,     0.998
  3, 11,  1.100E-003,     1.098
  3, 12,  1.200E-003,     1.198
  3, 13,  1.300E-003,     1.297
  3, 14,  1.400E-003,     1.397
  3, 15,  1.500E-003,     1.497
  3, 16,  1.600E-003,     1.597
  3, 17,  1.700E-003,     1.696
  3, 18,  1.800E-003,     1.796
  3, 19,  1.900E-003,     1.896
  3, 20,  2.000E-003,     1.996
  3, 21,  2.100E-003,     2.096
  3, 22,  2.200E-003,     2.196
  3, 23,  2.300E-003,     2.295
  3, 24,  2.400E-003,     2.395
  3, 25,  2.500E-003,     2.495
  3, 26,  2.600E-003,     2.595
  3, 27,  2.700E-003,     2.694
  3, 28,  2.800E-003,     2.794
  3, 29,  2.900E-003,     2.894
  3, 30,  3.000E-003,     2.993
  3, 31,  3.100E-003,     3.093
  3, 32,  3.200E-003,     3.193
  3, 33,  3.300E-003,     3.293
  3, 34,  3.400E-003,     3.392
  3, 35,  3.500E-003,     3.492
  3, 36,  3.600E-003,     3.592
  3, 37,  3.700E-003,     3.692
  3, 38,  3.800E-003,     3.791
  3, 39,  3.900E-003,     3.891
  3, 40,  4.000E-003,     3.991
  3, 41,  4.100E-003,     4.091
  3, 42,  4.200E-003,     4.191
  3, 43,  4.300E-003,     4.290
  3, 44,  4.400E-003,     4.390
  3, 45,  4.500E-003,     4.490
  3, 46,  4.600E-003,     4.590
  3, 47,  4.700E-003,     4.689
  3, 48,  4.800E-003,     4.789
  3, 49,  4.900E-003,     4.889
  3, 50,  5.000E-003,     4.989
  3, 51,  5.100E-003,     5.088
  3, 52,  5.200E-003,     5.188
  3, 53,  5.300E-003,     5.288
  3, 54,  5.400E-003,     5.388
  3, 55,  5.500E-003,     5.488
  3, 56,  5.600E-003,     5.588
  3, 57,  5.700E-003,     5.687
  3, 58,  5.800E-003,     5.787
  3, 59,  5.900E-003,     5.887
  3, 60,  6.000E-003,     5.987
  3, 61,  6.100E-003,     6.086
  3, 62,  6.200E-003,     6.186
  3, 63,  6.300E-003,     6.286
  3, 64,  6.400E-003,     6.386
  3, 65,  6.500E-003,     6.485
  3, 66,  6.600E-003,     6.585
  3, 67,  6.700E-003,     6.685
  3, 68,  6.800E-003,     6.785
  3, 69,  6.900E-003,     6.884
  3, 70,  7.000E-003,     6.984
  3, 71,  7.100E-003,     7.084
  3, 72,  7.200E-003,     7.184
  3, 73,  7.300E-003,     7.283
  3, 74,  7.400E-003,     7.383
  3, 75,  7.500E-003,     7.483
  3, 76,  7.600E-003,     7.583
  3, 77,  7.700E-003,     7.682
  3, 78,  7.800E-003,     7.782
  3, 79,  7.900E-003,     7.882
  3, 80,  8.000E-003,     7.981
  3, 81,  8.100E-003,     8.081
  3, 82,  8.200E-003,     8.181
  3, 83,  8.300E-003,     8.281
  3, 84,  8.400E-003,     8.381
  3, 85,  8.500E-003,     8.481
  3, 86,  8.600E-003,     8.580
  3, 87,  8.700E-003,     8.680
  3, 88,  8.800E-003,     8.780
  3, 89,  8.900E-003,     8.879
  3, 90,  9.000E-003,     8.979
  3, 91,  9.100E-003,     9.079
  3, 92,  9.200E-003,     9.178
  3, 93,  9.300E-003,     9.278
  3, 94,  9.400E-003,     9.378
  3, 95,  9.500E-003,     9.478
  3, 96,  9.600E-003,     9.577
  3, 97,  9.700E-003,     9.677
  3, 98,  9.800E-003,     9.777
  3, 99,  9.900E-003,     9.876
  3,100,  1.000E-002,     9.976
