[Device_info]
TestModelName=Resistor4
NPLC=Medium
[SMU_Channel]
VMH=SMU1
VML=SMU3
PortH=SMU2
PortL=SMU4
[SMU_Setup]
PortH_Start=100u
PortH_Stop=10m
PortH_Step=100u
VMH_V=0
VML_V=0
PortL_V=0
VMH_Vcom=20
VML_Vcom=20
PortH_Vcom=20
PortL_Icom=100m
HoldTime=100m
DelayTime=10m
[GraphInfo]
GraphTitle=RES-4
X_Title=Current (A)
X_Min=0.0001
X_Max=0.01
Y_Title=Delta Voltage (V)
Y_Min=0
Y_Max=10
TestCount=1
[TestInfo]
Test Name,RES-4
Test Date,2021-01-25
Test Time,17:33:04
Tact time,14.920(sec)
[TestData]
No,Index,GraphX:Current(A),VMH(V),VML(V),GraphY:DeltaV(V),R(ohm)
  1,  1,  1.000E-004,     0.100,     0.002,     0.099,9.870E+002
  1,  2,  2.000E-004,     0.200,     0.002,     0.198,9.915E+002
  1,  3,  3.000E-004,     0.300,     0.001,     0.298,9.942E+002
  1,  4,  4.000E-004,     0.399,     0.002,     0.398,9.946E+002
  1,  5,  5.000E-004,     0.499,     0.002,     0.497,9.949E+002
  1,  6,  6.000E-004,     0.599,     0.002,     0.597,9.951E+002
  1,  7,  7.000E-004,     0.699,     0.002,     0.697,9.957E+002
  1,  8,  8.000E-004,     0.798,     0.001,     0.797,9.960E+002
  1,  9,  9.000E-004,     0.898,     0.002,     0.896,9.958E+002
  1, 10,  1.000E-003,     0.998,     0.002,     0.996,9.960E+002
  1, 11,  1.100E-003,     1.097,     0.002,     1.096,9.960E+002
  1, 12,  1.200E-003,     1.197,     0.002,     1.195,9.961E+002
  1, 13,  1.300E-003,     1.297,     0.002,     1.295,9.962E+002
  1, 14,  1.400E-003,     1.397,     0.002,     1.395,9.964E+002
  1, 15,  1.500E-003,     1.496,     0.002,     1.495,9.965E+002
  1, 16,  1.600E-003,     1.596,     0.002,     1.594,9.964E+002
  1, 17,  1.700E-003,     1.696,     0.002,     1.694,9.967E+002
  1, 18,  1.800E-003,     1.796,     0.002,     1.794,9.966E+002
  1, 19,  1.900E-003,     1.896,     0.002,     1.894,9.968E+002
  1, 20,  2.000E-003,     1.995,     0.002,     1.993,9.967E+002
  1, 21,  2.100E-003,     2.095,     0.002,     2.093,9.967E+002
  1, 22,  2.200E-003,     2.195,     0.002,     2.193,9.968E+002
  1, 23,  2.300E-003,     2.294,     0.002,     2.293,9.968E+002
  1, 24,  2.400E-003,     2.394,     0.002,     2.392,9.968E+002
  1, 25,  2.500E-003,     2.494,     0.002,     2.492,9.968E+002
  1, 26,  2.600E-003,     2.594,     0.002,     2.592,9.969E+002
  1, 27,  2.700E-003,     2.693,     0.002,     2.691,9.968E+002
  1, 28,  2.800E-003,     2.793,     0.002,     2.791,9.967E+002
  1, 29,  2.900E-003,     2.893,     0.002,     2.891,9.968E+002
  1, 30,  3.000E-003,     2.992,     0.002,     2.990,9.967E+002
  1, 31,  3.100E-003,     3.092,     0.002,     3.090,9.968E+002
  1, 32,  3.200E-003,     3.192,     0.002,     3.190,9.968E+002
  1, 33,  3.300E-003,     3.292,     0.002,     3.289,9.968E+002
  1, 34,  3.400E-003,     3.391,     0.002,     3.389,9.968E+002
  1, 35,  3.500E-003,     3.491,     0.002,     3.489,9.970E+002
  1, 36,  3.600E-003,     3.591,     0.003,     3.588,9.968E+002
  1, 37,  3.700E-003,     3.691,     0.002,     3.689,9.969E+002
  1, 38,  3.800E-003,     3.791,     0.002,     3.788,9.969E+002
  1, 39,  3.900E-003,     3.890,     0.002,     3.888,9.969E+002
  1, 40,  4.000E-003,     3.990,     0.002,     3.988,9.970E+002
  1, 41,  4.100E-003,     4.090,     0.002,     4.087,9.969E+002
  1, 42,  4.200E-003,     4.190,     0.002,     4.187,9.969E+002
  1, 43,  4.300E-003,     4.289,     0.002,     4.287,9.970E+002
  1, 44,  4.400E-003,     4.389,     0.002,     4.386,9.969E+002
  1, 45,  4.500E-003,     4.489,     0.002,     4.486,9.969E+002
  1, 46,  4.600E-003,     4.588,     0.002,     4.586,9.969E+002
  1, 47,  4.700E-003,     4.688,     0.002,     4.686,9.970E+002
  1, 48,  4.800E-003,     4.788,     0.003,     4.785,9.969E+002
  1, 49,  4.900E-003,     4.888,     0.003,     4.885,9.969E+002
  1, 50,  5.000E-003,     4.987,     0.003,     4.985,9.969E+002
  1, 51,  5.100E-003,     5.087,     0.002,     5.084,9.970E+002
  1, 52,  5.200E-003,     5.187,     0.003,     5.184,9.969E+002
  1, 53,  5.300E-003,     5.287,     0.003,     5.284,9.970E+002
  1, 54,  5.400E-003,     5.386,     0.003,     5.384,9.970E+002
  1, 55,  5.500E-003,     5.486,     0.003,     5.484,9.970E+002
  1, 56,  5.600E-003,     5.586,     0.003,     5.583,9.970E+002
  1, 57,  5.700E-003,     5.686,     0.003,     5.683,9.970E+002
  1, 58,  5.800E-003,     5.786,     0.003,     5.783,9.971E+002
  1, 59,  5.900E-003,     5.885,     0.003,     5.882,9.970E+002
  1, 60,  6.000E-003,     5.985,     0.003,     5.982,9.970E+002
  1, 61,  6.100E-003,     6.085,     0.003,     6.082,9.970E+002
  1, 62,  6.200E-003,     6.185,     0.003,     6.181,9.970E+002
  1, 63,  6.300E-003,     6.284,     0.003,     6.281,9.970E+002
  1, 64,  6.400E-003,     6.384,     0.003,     6.381,9.970E+002
  1, 65,  6.500E-003,     6.483,     0.003,     6.480,9.970E+002
  1, 66,  6.600E-003,     6.583,     0.003,     6.580,9.970E+002
  1, 67,  6.700E-003,     6.683,     0.003,     6.680,9.970E+002
  1, 68,  6.800E-003,     6.783,     0.003,     6.779,9.970E+002
  1, 69,  6.900E-003,     6.882,     0.003,     6.879,9.970E+002
  1, 70,  7.000E-003,     6.982,     0.003,     6.979,9.970E+002
  1, 71,  7.100E-003,     7.082,     0.003,     7.079,9.970E+002
  1, 72,  7.200E-003,     7.182,     0.003,     7.178,9.970E+002
  1, 73,  7.300E-003,     7.282,     0.003,     7.278,9.970E+002
  1, 74,  7.400E-003,     7.381,     0.003,     7.378,9.970E+002
  1, 75,  7.500E-003,     7.481,     0.003,     7.478,9.970E+002
  1, 76,  7.600E-003,     7.580,     0.003,     7.577,9.970E+002
  1, 77,  7.700E-003,     7.680,     0.003,     7.677,9.970E+002
  1, 78,  7.800E-003,     7.780,     0.003,     7.777,9.970E+002
  1, 79,  7.900E-003,     7.880,     0.003,     7.876,9.970E+002
  1, 80,  8.000E-003,     7.979,     0.003,     7.976,9.970E+002
  1, 81,  8.100E-003,     8.079,     0.003,     8.076,9.970E+002
  1, 82,  8.200E-003,     8.179,     0.003,     8.175,9.970E+002
  1, 83,  8.300E-003,     8.278,     0.003,     8.275,9.970E+002
  1, 84,  8.400E-003,     8.378,     0.004,     8.374,9.970E+002
  1, 85,  8.500E-003,     8.478,     0.004,     8.474,9.970E+002
  1, 86,  8.600E-003,     8.577,     0.004,     8.574,9.970E+002
  1, 87,  8.700E-003,     8.677,     0.004,     8.673,9.969E+002
  1, 88,  8.800E-003,     8.777,     0.004,     8.773,9.969E+002
  1, 89,  8.900E-003,     8.876,     0.004,     8.873,9.969E+002
  1, 90,  9.000E-003,     8.976,     0.004,     8.973,9.970E+002
  1, 91,  9.100E-003,     9.076,     0.004,     9.072,9.970E+002
  1, 92,  9.200E-003,     9.176,     0.004,     9.172,9.969E+002
  1, 93,  9.300E-003,     9.275,     0.004,     9.272,9.970E+002
  1, 94,  9.400E-003,     9.375,     0.004,     9.371,9.969E+002
  1, 95,  9.500E-003,     9.475,     0.004,     9.471,9.969E+002
  1, 96,  9.600E-003,     9.574,     0.004,     9.571,9.969E+002
  1, 97,  9.700E-003,     9.674,     0.004,     9.670,9.969E+002
  1, 98,  9.800E-003,     9.774,     0.004,     9.770,9.969E+002
  1, 99,  9.900E-003,     9.873,     0.004,     9.869,9.969E+002
  1,100,  1.000E-002,     9.973,     0.004,     9.969,9.969E+002
